File: conjugated_ECPs/uv_vis_automated/Macromolecules, 54, 4, 1677–1692, 2021/metadata/DAT-co-(reg-1,3-DMP).txt
Wavelength (nm),Absorbance
360,0.398344
361,0.405043
362,0.411742
363,0.418441
364,0.425186
365,0.431991
366,0.438796
367,0.445601
368,0.453169
369,0.460782
370,0.468394
371,0.475656
372,0.482802
373,0.489948
374,0.49788
375,0.506271
376,0.514662
377,0.523369
378,0.532192
379,0.541016
380,0.550269
381,0.559611
382,0.568954
383,0.578018
384,0.587058
385,0.596095
386,0.605005
387,0.613915
388,0.622892
389,0.632365
390,0.641837
391,0.651286
392,0.660648
393,0.670009
394,0.67995
395,0.690897
396,0.70169
397,0.710815
398,0.71994
399,0.729545
400,0.74035
401,0.751113
402,0.761186
403,0.771259
404,0.781062
405,0.790828
406,0.800796
407,0.81085
408,0.820184
409,0.828721
410,0.837259
411,0.846029
412,0.854939
413,0.863849
414,0.872136
415,0.880181
416,0.888226
417,0.897172
418,0.906317
419,0.914849
420,0.921797
421,0.928745
422,0.935694
423,0.94187
424,0.947633
425,0.953396
426,0.959159
427,0.963664
428,0.96752
429,0.971377
430,0.975233
431,0.979089
432,0.982946
433,0.985372
434,0.986321
435,0.98727
436,0.98822
437,0.989169
438,0.990119
439,0.991068
440,0.992018
441,0.991238
442,0.988797
443,0.986356
444,0.983916
445,0.981475
446,0.979034
447,0.976594
448,0.971515
449,0.96638
450,0.961246
451,0.956111
452,0.949998
453,0.943299
454,0.9366
455,0.929901
456,0.918471
457,0.907402
458,0.898799
459,0.890197
460,0.880845
461,0.87108
462,0.860955
463,0.85042
464,0.839618
465,0.828161
466,0.816634
467,0.804561
468,0.792488
469,0.780819
470,0.769177
471,0.753869
472,0.738412
473,0.725235
474,0.712223
475,0.699378
476,0.683692
477,0.667249
478,0.652769
479,0.638946
480,0.62639
481,0.6127
482,0.596486
483,0.581594
484,0.566887
485,0.551834
486,0.537159
487,0.522498
488,0.507361
489,0.49262
490,0.47964
491,0.466661
492,0.451933
493,0.43682
494,0.422521
495,0.408364
496,0.394753
497,0.381142
498,0.367882
499,0.354656
500,0.341599
501,0.328604
502,0.316123
503,0.30405
504,0.292299
505,0.281072
506,0.269908
507,0.258989
508,0.248099
509,0.238305
510,0.22851
511,0.21827
512,0.207647
513,0.197205
514,0.187162
515,0.177241
516,0.16871
517,0.160179
518,0.151927
519,0.144611
520,0.137295
521,0.13006
522,0.12419
523,0.11832
524,0.11245
525,0.10658
526,0.101059
527,0.0957601
528,0.0904609
529,0.0851617
530,0.0800601
531,0.0755288
532,0.0709974
533,0.0664661
534,0.0619347
535,0.0574034
536,0.0540217
537,0.0509008
538,0.0477799
539,0.044659