File: conjugated_ECPs/uv_vis_automated/Macromolecules, 54, 4, 1677–1692, 2021/metadata/DAT-co-(DiBP).txt
Wavelength (nm),Absorbance
360,0.504424
361,0.511998
362,0.519415
363,0.527275
364,0.536228
365,0.545181
366,0.553747
367,0.562294
368,0.570982
369,0.579794
370,0.58868
371,0.597969
372,0.607258
373,0.616304
374,0.625282
375,0.634843
376,0.645135
377,0.654571
378,0.663377
379,0.672485
380,0.681851
381,0.691558
382,0.701604
383,0.711563
384,0.721479
385,0.729964
386,0.738195
387,0.747785
388,0.758455
389,0.76788
390,0.776745
391,0.78579
392,0.795166
393,0.804542
394,0.813536
395,0.822521
396,0.831298
397,0.839936
398,0.848603
399,0.857371
400,0.866139
401,0.87505
402,0.883988
403,0.893164
404,0.902521
405,0.910396
406,0.917588
407,0.924772
408,0.931162
409,0.937551
410,0.943907
411,0.94943
412,0.954952
413,0.960474
414,0.965196
415,0.969677
416,0.974158
417,0.978639
418,0.98202
419,0.984695
420,0.98737
421,0.990045
422,0.99272
423,0.995395
424,0.995705
425,0.995923
426,0.996141
427,0.996359
428,0.996578
429,0.996796
430,0.995871
431,0.993401
432,0.99093
433,0.988459
434,0.985989
435,0.983518
436,0.979348
437,0.974695
438,0.970042
439,0.965388
440,0.959197
441,0.952863
442,0.946529
443,0.938994
444,0.931388
445,0.923102
446,0.913978
447,0.904758
448,0.895369
449,0.885932
450,0.876093
451,0.866226
452,0.855423
453,0.844582
454,0.833624
455,0.822488
456,0.811145
457,0.799119
458,0.786773
459,0.774219
460,0.761597
461,0.748633
462,0.735684
463,0.722766
464,0.709223
465,0.695334
466,0.681035
467,0.667692
468,0.654536
469,0.64106
470,0.627334
471,0.611216
472,0.596547
473,0.58355
474,0.568039
475,0.552937
476,0.538698
477,0.524762
478,0.511288
479,0.497814
480,0.481146
481,0.468756
482,0.456248
483,0.439719
484,0.427731
485,0.41535
486,0.39896
487,0.386446
488,0.374031
489,0.361376
490,0.348843
491,0.336496
492,0.324434
493,0.31255
494,0.300602
495,0.288681
496,0.277569
497,0.266661
498,0.256321
499,0.246231
500,0.236412
501,0.226019
502,0.214907
503,0.205147
504,0.196384
505,0.187546
506,0.178474
507,0.169402
508,0.161818
509,0.154471
510,0.147534
511,0.141249
512,0.134963
513,0.128631
514,0.122131
515,0.11563
516,0.109333
517,0.103659
518,0.0979849
519,0.0923111
520,0.0874279
521,0.0825638
522,0.0776998
523,0.0729383
524,0.0689807
525,0.0650232
526,0.0610656
527,0.0571081
528,0.0534802
529,0.0504427
530,0.0474051
531,0.0443676
532,0.04133
533,0.0382924
534,0.0356293
535,0.0334942
536,0.031359
537,0.0292239
538,0.0270887
539,0.0249535
540,0.0228184
541,0.0212773
542,0.0198195
543,0.0183616
544,0.0169037
545,0.0154458
546,0.013988
547,0.0127249
548,0.011841
549,0.0109571
550,0.0100732
551,0.00918925
552,0.00830534
553,0.00742143
554,0.00685039
555,0.00635678
556,0.00586317
557,0.00536956
558,0.00487595
559,0.00438234
560,0.00398262
561,0.00384487
562,0.00370712
563,0.00356937
564,0.00343161
565,0.00329386
566,0.00315611
567,0.00316839
568,0.00323727
569,0.00330614
570,0.00337502
571,0.00344389
572,0.00351277
573,0.00354922
574,0.0034459
575,0.00334259
576,0.00323928
577,0.00313596
578,0.00303265
579,0.00292933
580,0.0028783
581,0.00285534
582,0.00283238
583,0.00280942
584,0.00278646
585,0.0027635
586,0.00274313
587,0.00274313
588,0.00274313
589,0.00274313
590,0.00274313
591,0.00274313
592,0.00274313
593,0.00274313
594,0.00274313
595,0.00274313
596,0.00274313
597,0.00274313
598,0.00274313
599,0.00274313
600,0.00274313
601,0.00274313
602,0.00274313
603,0.00274313
604,0.00274313
605,0.00274313
606,0.00274313
607,0.00274313
608,0.00274313
609,0.00274313
610,0.00274313
611,0.00274313
612,0.00274313
613,0.00280937
614,0.00287825
615,0.00294712
616,0.003016
617,0.00308487
618,0.00315375
619,0.00321776
620,0.00327516
621,0.00333255
622,0.00338995
623,0.00344735
624,0.00350474
625,0.00356214
626,0.00352798
627,0.00348207
628,0.00343615
629,0.00339023
630,0.00334432
631,0.0032984
632,0.00328048
633,0.00331491
634,0.00334935
635,0.00338379
636,0.00341823
637,0.00345267
638,0.0034871
639,0.00350293
640,0.00351441
641,0.00352589
642,0.00353737
643,0.00354885
644,0.00356033
645,0.00356867
646,0.00356867
647,0.00356867
648,0.00356867
649,0.00356867