File: conjugated_ECPs/uv_vis_automated/Macromolecules, 54, 4, 1677–1692, 2021/metadata/DAT-co-(DEP).txt
Wavelength (nm),Absorbance
360,0.582713
361,0.592051
362,0.600348
363,0.608644
364,0.616868
365,0.624946
366,0.633024
367,0.642532
368,0.652343
369,0.66207
370,0.671797
371,0.680731
372,0.689647
373,0.699203
374,0.708941
375,0.719093
376,0.729293
377,0.738925
378,0.748505
379,0.758409
380,0.768345
381,0.778613
382,0.788945
383,0.799529
384,0.80974
385,0.818357
386,0.826975
387,0.83589
388,0.844876
389,0.853634
390,0.862098
391,0.870558
392,0.878935
393,0.887313
394,0.895167
395,0.902776
396,0.910381
397,0.91727
398,0.92416
399,0.931056
400,0.93814
401,0.945223
402,0.951578
403,0.957225
404,0.962873
405,0.96852
406,0.972547
407,0.97615
408,0.979754
409,0.983358
410,0.986962
411,0.989591
412,0.991
413,0.992409
414,0.993817
415,0.995226
416,0.996635
417,0.998043
418,0.99699
419,0.995683
420,0.994375
421,0.993067
422,0.991759
423,0.990451
424,0.98752
425,0.983972
426,0.980424
427,0.976877
428,0.971621
429,0.965946
430,0.96027
431,0.95394
432,0.945494
433,0.937948
434,0.931874
435,0.9258
436,0.918331
437,0.909708
438,0.90107
439,0.892145
440,0.88322
441,0.871728
442,0.860376
443,0.849558
444,0.838888
445,0.828335
446,0.816774
447,0.804191
448,0.791577
449,0.778948
450,0.76728
451,0.755497
452,0.742096
453,0.728637
454,0.715075
455,0.702027
456,0.689575
457,0.672991
458,0.657717
459,0.644951
460,0.632013
461,0.613534
462,0.598466
463,0.587607
464,0.57265
465,0.556568
466,0.540415
467,0.527748
468,0.514517
469,0.498421
470,0.482134
471,0.468669
472,0.45611
473,0.439387
474,0.423188
475,0.411122
476,0.401751
477,0.389272
478,0.373696
479,0.359666
480,0.346812
481,0.334465
482,0.322542
483,0.310677
484,0.298935
485,0.28755
486,0.277133
487,0.266689
488,0.256072
489,0.245592
490,0.235616
491,0.225885
492,0.216395
493,0.207658
494,0.199331
495,0.191277
496,0.183675
497,0.176073
498,0.168197
499,0.160186
500,0.152175
501,0.145414
502,0.13866
503,0.131913
504,0.12551
505,0.119107
506,0.112755
507,0.107354
508,0.101952
509,0.0965503
510,0.0922486
511,0.0881526
512,0.0840567
513,0.0799607
514,0.0758721
515,0.0720358
516,0.0681995
517,0.0643632
518,0.060527
519,0.0570898
520,0.0539529
521,0.0508161
522,0.0476792
523,0.0445423
524,0.0414054
525,0.0391627
526,0.0369931
527,0.0348235
528,0.0326539
529,0.0304843
530,0.0283147
531,0.0263821
532,0.0248253
533,0.0232685
534,0.0217116
535,0.0201548
536,0.018598
537,0.0170412
538,0.0157108
539,0.0144208