File: conjugated_ECPs/uv_vis_automated/initial_experimental_data_batch1/metadata/A2-100.txt
Wavelength (nm)	Absorbance
350	0.24554
352	0.24588
354	0.24834
356	0.25306
358	0.25609
360	0.25901
362	0.26069
364	0.26204
366	0.26361
368	0.26518
370	0.26731
372	0.27056
374	0.27483
376	0.27954
378	0.28268
380	0.28605
382	0.28908
384	0.29155
386	0.29447
388	0.29941
390	0.30288
392	0.30704
394	0.31052
396	0.31377
398	0.31826
400	0.32263
402	0.32869
404	0.3361
406	0.34261
408	0.34912
410	0.35608
412	0.36259
414	0.37055
416	0.37931
418	0.38739
420	0.39771
422	0.40568
424	0.41387
426	0.4215
428	0.43115
430	0.44372
432	0.45494
434	0.46751
436	0.48199
438	0.50039
440	0.51319
442	0.52946
444	0.54203
446	0.5565
448	0.57098
450	0.58433
452	0.60397
454	0.61665
456	0.63607
458	0.65054
460	0.66109
462	0.67804
464	0.69498
466	0.71563
468	0.73123
470	0.75098
472	0.76378
474	0.7842
476	0.80092
478	0.82247
480	0.84211
482	0.85759
484	0.87005
486	0.88004
488	0.8907
490	0.9063
492	0.91516
494	0.92672
496	0.93581
498	0.94535
500	0.95825
502	0.97071
504	0.97924
506	0.9862
508	0.99214
510	0.99495
512	0.99843
514	1
516	0.99776
518	0.99506
520	0.99102
522	0.98317
524	0.96936
526	0.95691
528	0.94445
530	0.93155
532	0.91718
534	0.89923
536	0.88183
538	0.86219
540	0.84536
542	0.82886
544	0.81427
546	0.79789
548	0.78768
550	0.76164
552	0.74717
554	0.7236
556	0.71025
558	0.68488
560	0.65301
562	0.62574
564	0.5969
566	0.57132
568	0.53294
570	0.5005
572	0.46942
574	0.43104
576	0.39289
578	0.3627
580	0.3251
582	0.29424
584	0.24879
586	0.22635
588	0.20301
590	0.18258
592	0.15767
594	0.14095
596	0.12894
598	0.11772
600	0.11009
602	0.10279
604	0.09629
606	0.09124
608	0.08787
610	0.08484
612	0.08215
614	0.08013
616	0.07811
618	0.07631
620	0.07463
622	0.07328
624	0.07182
626	0.0707
628	0.06991
630	0.0689
632	0.06823
634	0.06733
636	0.06655
638	0.06554
640	0.06486
642	0.0643
644	0.06363
646	0.06273
648	0.06172
650	0.06116
652	0.06082
654	0.06015
656	0.05959
658	0.05903
660	0.05847
662	0.05802
664	0.05791
666	0.05734
668	0.05667
670	0.05622
672	0.05589
674	0.05544
676	0.05499
678	0.05454
680	0.05431
682	0.05387
684	0.05342
686	0.0533
688	0.05297
690	0.05274
692	0.05229
694	0.05196
696	0.05173
698	0.0514
700	0.05117
702	0.05095
704	0.05061
706	0.05016
708	0.05039
710	0.05016
712	0.04994
714	0.04971
716	0.0496
718	0.04938
720	0.04938
722	0.04915
724	0.04926
726	0.04904
728	0.04882
730	0.04949
732	0.04949
734	0.04971
736	0.04994
738	0.05005
740	0.05016
742	0.04994
744	0.0496
746	0.04938
748	0.04926
750	0.04859
752	0.04825
754	0.04814
756	0.04781
758	0.04713
760	0.0468
762	0.04691
764	0.0468
766	0.04657
768	0.04635
770	0.04657
772	0.04623
774	0.0459
776	0.04601
778	0.04579
780	0.04567
782	0.04567
784	0.04545
786	0.04511
788	0.045
790	0.04511
792	0.04478
794	0.04444
796	0.04466
798	0.04489
800	0.04422