File: conjugated_ECPs/uv_vis_automated/initial_experimental_data_batch1/metadata/A2-50-B3-50-Yellow.txt
Wavelength (nm)	Absorbance
350	0.41736
352	0.4288
354	0.44633
356	0.46589
358	0.47925
360	0.4944
362	0.5074
364	0.52116
366	0.53312
368	0.5564
370	0.57567
372	0.59443
374	0.61649
376	0.63721
378	0.6548
380	0.6757
382	0.69939
384	0.71936
386	0.73864
388	0.76592
390	0.78287
392	0.80122
394	0.82032
396	0.83605
398	0.85631
400	0.8728
402	0.89504
404	0.91315
406	0.9283
408	0.9427
410	0.95303
412	0.96412
414	0.97266
416	0.98374
418	0.99129
420	0.9975
422	1
424	0.99884
426	0.99884
428	0.99605
430	0.99083
432	0.98508
434	0.97521
436	0.96012
438	0.94171
440	0.92644
442	0.91843
444	0.89817
446	0.86827
448	0.84662
450	0.81626
452	0.78049
454	0.75367
456	0.71048
458	0.68023
460	0.65875
462	0.61817
464	0.5809
466	0.53475
468	0.49846
470	0.45637
472	0.42746
474	0.38572
476	0.34671
478	0.311
480	0.27321
482	0.2447
484	0.22212
486	0.20244
488	0.18595
490	0.1636
492	0.14874
494	0.13213
496	0.12052
498	0.10642
500	0.09463
502	0.08459
504	0.07657
506	0.07042
508	0.06491
510	0.05997
512	0.05591
514	0.05266
516	0.04964
518	0.04755
520	0.04546
522	0.04366
524	0.04215
526	0.04081
528	0.04
530	0.03936
532	0.03866
534	0.03808
536	0.03762
538	0.03733
540	0.03687
542	0.03669
544	0.0364
546	0.03623
548	0.03623
550	0.03599
552	0.03605
554	0.03582
556	0.03576
558	0.0357
560	0.03547
562	0.03541
564	0.03547
566	0.03507
568	0.03507
570	0.03507
572	0.03507
574	0.03478
576	0.03501
578	0.03495
580	0.03478
582	0.03483
584	0.03483
586	0.0346
588	0.03466
590	0.03448
592	0.03448
594	0.03448
596	0.03431
598	0.03437
600	0.03425
602	0.03414
604	0.03419
606	0.03425
608	0.03408
610	0.03414
612	0.03402
614	0.03402
616	0.03402
618	0.03402
620	0.03419
622	0.03402
624	0.03408
626	0.03402
628	0.03396
630	0.03408
632	0.03396
634	0.03396
636	0.03396
638	0.03385
640	0.03385
642	0.03379
644	0.03379
646	0.03367
648	0.0335
650	0.03344
652	0.03356
654	0.03338
656	0.03332
658	0.03338
660	0.03327
662	0.03327
664	0.03327
666	0.03332
668	0.03309
670	0.03315
672	0.03309
674	0.03309
676	0.03315
678	0.03298
680	0.03292
682	0.03286
684	0.03292
686	0.03292
688	0.03286
690	0.03286
692	0.03274
694	0.03274
696	0.0328
698	0.03257
700	0.03269
702	0.03269
704	0.03274
706	0.03257
708	0.03269
710	0.03263
712	0.03257
714	0.03269
716	0.03245
718	0.03257
720	0.03245
722	0.03245
724	0.03251
726	0.03257
728	0.03251
730	0.03263
732	0.03274
734	0.03298
736	0.03298
738	0.03309
740	0.03327
742	0.03303
744	0.03303
746	0.03303
748	0.03298
750	0.03269
752	0.03245
754	0.03245
756	0.03239
758	0.03222
760	0.03216
762	0.03199
764	0.03216
766	0.0321
768	0.03187
770	0.03193
772	0.03187
774	0.0317
776	0.03181
778	0.03193
780	0.0317
782	0.0317
784	0.03187
786	0.03158
788	0.03158
790	0.03152
792	0.03158
794	0.03129
796	0.03129
798	0.03147
800	0.03129