File: conjugated_ECPs/uv_vis_automated/initial_experimental_data_batch1/metadata/A2-65-B5-35-Magenta.txt
Wavelength (nm)	Absorbance
350	0.72133
352	0.71945
354	0.7108
356	0.70469
358	0.69955
360	0.6952
362	0.6926
364	0.68752
366	0.68268
368	0.67572
370	0.66961
372	0.66453
374	0.6603
376	0.65552
378	0.65286
380	0.64808
382	0.64306
384	0.63906
386	0.63483
388	0.6306
390	0.62612
392	0.62297
394	0.61953
396	0.61741
398	0.61378
400	0.61275
402	0.61051
404	0.60973
406	0.6084
408	0.6087
410	0.60737
412	0.60664
414	0.60519
416	0.60465
418	0.60362
420	0.60235
422	0.60192
424	0.60144
426	0.60102
428	0.60186
430	0.60404
432	0.60628
434	0.60906
436	0.61293
438	0.61826
440	0.62176
442	0.62709
444	0.6306
446	0.63441
448	0.639
450	0.64293
452	0.64953
454	0.65485
456	0.66144
458	0.66713
460	0.67167
462	0.67699
464	0.68479
466	0.69423
468	0.70076
470	0.71092
472	0.71516
474	0.72683
476	0.73585
478	0.74692
480	0.7575
482	0.76597
484	0.77522
486	0.78188
488	0.78986
490	0.80269
492	0.80843
494	0.81944
496	0.82948
498	0.83874
500	0.85132
502	0.86154
504	0.87225
506	0.88017
508	0.89106
510	0.89947
512	0.90896
514	0.91707
516	0.92566
518	0.93237
520	0.93963
522	0.94865
524	0.95475
526	0.96522
528	0.96903
530	0.97151
532	0.97816
534	0.98415
536	0.98488
538	0.98978
540	0.99286
542	0.99685
544	0.99613
546	0.99571
548	0.99685
550	0.99698
552	0.99583
554	0.99286
556	0.99298
558	0.98766
560	0.98191
562	0.97865
564	0.97187
566	0.96945
568	0.95711
570	0.95209
572	0.94429
574	0.93395
576	0.92397
578	0.91616
580	0.90515
582	0.89366
584	0.8783
586	0.86553
588	0.85029
590	0.83952
592	0.8195
594	0.80607
596	0.79204
598	0.77752
600	0.76113
602	0.74425
604	0.72006
606	0.70554
608	0.6886
610	0.67342
612	0.65419
614	0.63604
616	0.61813
618	0.59842
620	0.57712
622	0.55831
624	0.53805
626	0.51821
628	0.50006
630	0.48542
632	0.46486
634	0.44707
636	0.43001
638	0.4115
640	0.39523
642	0.38078
644	0.3616
646	0.34606
648	0.32507
650	0.30831
652	0.29416
654	0.27934
656	0.265
658	0.25212
660	0.23808
662	0.22683
664	0.21443
666	0.20215
668	0.18987
670	0.18104
672	0.16647
674	0.15794
676	0.14759
678	0.14039
680	0.13368
682	0.12703
684	0.11777
686	0.11215
688	0.10501
690	0.09896
692	0.09218
694	0.08904
696	0.08384
698	0.0787
700	0.07597
702	0.07222
704	0.06938
706	0.06599
708	0.06351
710	0.06085
712	0.05831
714	0.05656
716	0.05468
718	0.05323
720	0.05129
722	0.04996
724	0.04851
726	0.04748
728	0.047
730	0.04579
732	0.04512
734	0.0447
736	0.04416
738	0.04355
740	0.04283
742	0.04222
744	0.04168
746	0.04113
748	0.04059
750	0.03974
752	0.03914
754	0.03877
756	0.03829
758	0.0375
760	0.03732
762	0.03678
764	0.03666
766	0.03623
768	0.03593
770	0.03569
772	0.03533
774	0.0349
776	0.0349
778	0.0346
780	0.03418
782	0.03412
784	0.03375
786	0.03363
788	0.03333
790	0.03303
792	0.03285
794	0.03272
796	0.0323
798	0.03236
800	0.03218