File: conjugated_ECPs/uv_vis_automated/initial_experimental_data_batch1/metadata/A2-65-B3-35-Orange.txt
Wavelength (nm)	Absorbance
350	0.31939
352	0.32257
354	0.32645
356	0.33204
358	0.33584
360	0.34073
362	0.34469
364	0.34911
366	0.35214
368	0.35928
370	0.36463
372	0.37099
374	0.37782
376	0.38512
378	0.39117
380	0.39831
382	0.40746
384	0.41414
386	0.42182
388	0.43214
390	0.44029
392	0.44851
394	0.45674
396	0.46528
398	0.47513
400	0.48405
402	0.49709
404	0.5109
406	0.52239
408	0.53364
410	0.54458
412	0.55746
414	0.57042
416	0.58392
418	0.59688
420	0.61349
422	0.62497
424	0.63832
426	0.64965
428	0.66261
430	0.67952
432	0.69403
434	0.70893
436	0.726
438	0.74641
440	0.7603
442	0.7707
444	0.78614
446	0.80368
448	0.81765
450	0.83278
452	0.84969
454	0.86195
456	0.87693
458	0.88849
460	0.89617
462	0.90898
464	0.91953
466	0.9335
468	0.94126
470	0.95251
472	0.95973
474	0.9685
476	0.97657
478	0.98401
480	0.98999
482	0.99317
484	0.99674
486	0.99713
488	0.99922
490	1
492	0.99814
494	0.99519
496	0.99286
498	0.98983
500	0.98409
502	0.97594
504	0.96857
506	0.95817
508	0.94824
510	0.93738
512	0.92364
514	0.90937
516	0.89284
518	0.87918
520	0.86009
522	0.83844
524	0.81477
526	0.79018
528	0.77396
530	0.75634
532	0.73128
534	0.70327
536	0.68371
538	0.65679
540	0.63444
542	0.61387
544	0.59347
546	0.57143
548	0.55723
550	0.52215
552	0.50338
554	0.47466
556	0.45821
558	0.43129
560	0.40009
562	0.37487
564	0.3509
566	0.32956
568	0.30193
570	0.27935
572	0.25933
574	0.23434
576	0.21231
578	0.1957
580	0.17591
582	0.1607
584	0.13882
586	0.12811
588	0.11787
590	0.10856
592	0.09863
594	0.09265
596	0.08528
598	0.08008
600	0.07636
602	0.07271
604	0.06945
606	0.06666
608	0.06472
610	0.06309
612	0.06138
614	0.05983
616	0.05866
618	0.05742
620	0.0561
622	0.05533
624	0.0544
626	0.0537
628	0.05308
630	0.05261
632	0.05199
634	0.05145
636	0.05083
638	0.05044
640	0.04997
642	0.04966
644	0.04904
646	0.04873
648	0.04819
650	0.0478
652	0.04757
654	0.04718
656	0.04671
658	0.04656
660	0.04633
662	0.04602
664	0.04594
666	0.04555
668	0.04532
670	0.04501
672	0.04477
674	0.04462
676	0.04439
678	0.04415
680	0.04392
682	0.04377
684	0.04361
686	0.04345
688	0.0433
690	0.04299
692	0.04283
694	0.04268
696	0.04268
698	0.04221
700	0.04229
702	0.04198
704	0.04206
706	0.04167
708	0.04167
710	0.04159
712	0.04136
714	0.04128
716	0.04113
718	0.04113
720	0.04128
722	0.04105
724	0.04113
726	0.04105
728	0.04113
730	0.04113
732	0.04128
734	0.04159
736	0.04183
738	0.0419
740	0.04206
742	0.04183
744	0.04159
746	0.04151
748	0.04136
750	0.04089
752	0.04066
754	0.04058
756	0.04035
758	0.03996
760	0.03965
762	0.03957
764	0.03973
766	0.03965
768	0.0395
770	0.03934
772	0.03919
774	0.03911
776	0.03919
778	0.03911
780	0.0388
782	0.03888
784	0.03895
786	0.03849
788	0.03841
790	0.03833
792	0.0381
794	0.0381
796	0.03795
798	0.03802
800	0.03795