File: conjugated_ECPs/uv_vis_automated/initial_experimental_data_batch1/metadata/A2-65-A3-35-Orange.txt
Wavelength (nm)	Absorbance
350	0.21432
352	0.21577
354	0.21811
356	0.2218
358	0.22582
360	0.22872
362	0.23073
364	0.23263
366	0.23409
368	0.23654
370	0.23922
372	0.2428
374	0.24816
376	0.25229
378	0.25609
380	0.25955
382	0.26279
384	0.26647
386	0.26927
388	0.27451
390	0.27887
392	0.28378
394	0.28847
396	0.2916
398	0.29685
400	0.30143
402	0.30824
404	0.3155
406	0.3222
408	0.32879
410	0.3356
412	0.3432
414	0.35146
416	0.36006
418	0.36844
420	0.37927
422	0.38742
424	0.39569
426	0.40462
428	0.41345
430	0.42651
432	0.43746
434	0.44997
436	0.46504
438	0.48314
440	0.49576
442	0.51363
444	0.52491
446	0.53853
448	0.55428
450	0.56813
452	0.58767
454	0.60107
456	0.61983
458	0.63514
460	0.64563
462	0.66306
464	0.67936
466	0.70092
468	0.71689
470	0.73721
472	0.7505
474	0.77116
476	0.79048
478	0.80902
480	0.83002
482	0.84577
484	0.85872
486	0.87023
488	0.88106
490	0.89781
492	0.90608
494	0.9197
496	0.92886
498	0.94126
500	0.95298
502	0.96404
504	0.97275
506	0.98057
508	0.98682
510	0.99352
512	0.99721
514	0.99966
516	0.99955
518	0.99922
520	0.99587
522	0.98861
524	0.97867
526	0.96627
528	0.95689
530	0.94717
532	0.93098
534	0.91255
536	0.89558
538	0.87737
540	0.85962
542	0.84543
544	0.83036
546	0.81472
548	0.80433
550	0.77909
552	0.76524
554	0.74268
556	0.73006
558	0.7065
560	0.67724
562	0.65233
564	0.62486
566	0.60051
568	0.5631
570	0.5325
572	0.50235
574	0.46337
576	0.42506
578	0.39457
580	0.3566
582	0.32421
584	0.2763
586	0.25296
588	0.22783
590	0.20449
592	0.18014
594	0.16529
596	0.14675
598	0.13391
600	0.12486
602	0.11693
604	0.108
606	0.10353
608	0.09962
610	0.09627
612	0.09314
614	0.09069
616	0.08856
618	0.08655
620	0.08465
622	0.08309
624	0.08175
626	0.08063
628	0.07974
630	0.07896
632	0.07795
634	0.07717
636	0.07617
638	0.07561
640	0.07505
642	0.07472
644	0.07393
646	0.07338
648	0.07248
650	0.07192
652	0.07148
654	0.07103
656	0.07058
658	0.07025
660	0.06991
662	0.06935
664	0.06924
666	0.06891
668	0.06835
670	0.06801
672	0.06757
674	0.06734
676	0.06701
678	0.06667
680	0.06656
682	0.06623
684	0.06578
686	0.06567
688	0.06533
690	0.065
692	0.06466
694	0.06444
696	0.06433
698	0.06388
700	0.06355
702	0.06344
704	0.06332
706	0.06288
708	0.06288
710	0.06277
712	0.06254
714	0.06232
716	0.0621
718	0.06198
720	0.06198
722	0.06176
724	0.06198
726	0.06187
728	0.06165
730	0.06198
732	0.06198
734	0.06243
736	0.06243
738	0.06254
740	0.06277
742	0.06243
744	0.06232
746	0.0621
748	0.06198
750	0.06131
752	0.06075
754	0.06064
756	0.06031
758	0.05975
760	0.05953
762	0.05919
764	0.0593
766	0.05919
768	0.05919
770	0.05897
772	0.05852
774	0.0583
776	0.05863
778	0.0583
780	0.05807
782	0.0583
784	0.05785
786	0.05729
788	0.05718
790	0.05718
792	0.05707
794	0.05685
796	0.05685
798	0.05685
800	0.05651