File: conjugated_ECPs/uv_vis_automated/initial_experimental_data_batch1/metadata/A2-80-A3-20-Red.txt
Wavelength (nm)	Absorbance
350	0.20335
352	0.20421
354	0.20615
356	0.20931
358	0.21233
360	0.2142
362	0.21585
364	0.2175
366	0.21916
368	0.2211
370	0.22361
372	0.22649
374	0.23051
376	0.23396
378	0.23712
380	0.2405
382	0.24373
384	0.24747
386	0.24984
388	0.25472
390	0.25882
392	0.2627
394	0.26665
396	0.2701
398	0.27527
400	0.2793
402	0.28541
404	0.29245
406	0.29827
408	0.30466
410	0.31005
412	0.31709
414	0.32478
416	0.33254
418	0.34016
420	0.34993
422	0.35712
424	0.36473
426	0.37242
428	0.38083
430	0.39197
432	0.40188
434	0.41295
436	0.42631
438	0.44183
440	0.45355
442	0.46885
444	0.47963
446	0.49199
448	0.50514
450	0.51735
452	0.53539
454	0.54775
456	0.56471
458	0.57735
460	0.58705
462	0.60236
464	0.61687
466	0.63663
468	0.65122
470	0.67026
472	0.68262
474	0.70303
476	0.72336
478	0.74197
480	0.76345
482	0.77998
484	0.7955
486	0.80757
488	0.81806
490	0.83603
492	0.84573
494	0.85924
496	0.86937
498	0.88259
500	0.89567
502	0.90803
504	0.92024
506	0.9298
508	0.94209
510	0.95286
512	0.96522
514	0.97514
516	0.98441
518	0.9903
520	0.99425
522	1
524	0.99792
526	0.99497
528	0.98908
530	0.98168
532	0.96817
534	0.95035
536	0.93684
538	0.91758
540	0.90091
542	0.88561
544	0.87152
546	0.85809
548	0.85047
550	0.83394
552	0.82697
554	0.81605
556	0.81009
558	0.79938
560	0.78544
562	0.77143
564	0.75483
566	0.73752
568	0.70964
570	0.68233
572	0.65503
574	0.61551
576	0.57254
578	0.53402
580	0.48416
582	0.44226
584	0.3735
586	0.33649
588	0.29712
590	0.26105
592	0.22124
594	0.19588
596	0.16606
598	0.14464
600	0.13027
602	0.11712
604	0.10297
606	0.09636
608	0.09046
610	0.08579
612	0.08127
614	0.07789
616	0.0748
618	0.07221
620	0.0697
622	0.06783
624	0.06603
626	0.06453
628	0.0633
630	0.0623
632	0.061
634	0.06007
636	0.05906
638	0.05813
640	0.05734
642	0.05677
644	0.05576
646	0.05511
648	0.05411
650	0.05332
652	0.0531
654	0.05224
656	0.05188
658	0.05123
660	0.05066
662	0.05001
664	0.04972
666	0.04936
668	0.04879
670	0.04829
672	0.04786
674	0.04742
676	0.04699
678	0.04663
680	0.04627
682	0.04599
684	0.04541
686	0.04534
688	0.04491
690	0.04455
692	0.04412
694	0.04397
696	0.04383
698	0.04311
700	0.04304
702	0.04268
704	0.04268
706	0.04211
708	0.04218
710	0.04182
712	0.04153
714	0.04146
716	0.0411
718	0.04103
720	0.04074
722	0.04067
724	0.04074
726	0.04053
728	0.04024
730	0.04053
732	0.04038
734	0.04074
736	0.04074
738	0.04089
740	0.04081
742	0.0406
744	0.04045
746	0.04024
748	0.03988
750	0.03945
752	0.03909
754	0.03895
756	0.03873
758	0.03815
760	0.03823
762	0.03772
764	0.03772
766	0.03765
768	0.03744
770	0.03751
772	0.03729
774	0.03708
776	0.03701
778	0.03693
780	0.03672
782	0.03657
784	0.03657
786	0.03629
788	0.03636
790	0.03593
792	0.036
794	0.03578
796	0.03557
798	0.03557
800	0.03542