File: conjugated_ECPs/uv_vis_automated/initial_experimental_data_batch1/metadata/A2-80-B5-20-Magenta.txt
Wavelength (nm)	Absorbance
350	0.50536
352	0.50606
354	0.50802
356	0.51209
358	0.5153
360	0.51936
362	0.52249
364	0.52547
366	0.52781
368	0.53274
370	0.5372
372	0.54213
374	0.54808
376	0.55434
378	0.55958
380	0.56553
382	0.57233
384	0.57812
386	0.58399
388	0.59158
390	0.59706
392	0.60347
394	0.60958
396	0.6149
398	0.62241
400	0.62882
402	0.63876
404	0.64854
406	0.65644
408	0.66544
410	0.67295
412	0.68164
414	0.68977
416	0.69799
418	0.70542
420	0.71426
422	0.7206
424	0.72709
426	0.73351
428	0.74149
430	0.75221
432	0.76168
434	0.77122
436	0.7828
438	0.79649
440	0.80565
442	0.81676
444	0.82552
446	0.83303
448	0.84234
450	0.84962
452	0.86112
454	0.86754
456	0.87716
458	0.88444
460	0.89054
462	0.89735
464	0.90548
466	0.91472
468	0.92215
470	0.93029
472	0.93733
474	0.94515
476	0.95118
478	0.95814
480	0.96401
482	0.96863
484	0.97332
486	0.97606
488	0.97911
490	0.98388
492	0.98607
494	0.98889
496	0.99225
498	0.99577
500	0.9975
502	0.9989
504	0.99906
506	1
508	0.99875
510	0.99734
512	0.99491
514	0.99398
516	0.98952
518	0.98732
520	0.98333
522	0.97919
524	0.97269
526	0.96471
528	0.95971
530	0.95454
532	0.94805
534	0.93952
536	0.93256
538	0.92364
540	0.91628
542	0.91026
544	0.90142
546	0.89375
548	0.88796
550	0.8727
552	0.86464
554	0.85259
556	0.84563
558	0.83233
560	0.81645
562	0.80291
564	0.78937
566	0.7785
568	0.76019
570	0.74673
572	0.73476
574	0.71794
576	0.703
578	0.68946
580	0.67491
582	0.66184
584	0.64111
586	0.63039
588	0.61865
590	0.60637
592	0.59127
594	0.58047
596	0.56553
598	0.55324
600	0.54198
602	0.52985
604	0.51256
606	0.50239
608	0.49135
610	0.48017
612	0.46796
614	0.45638
616	0.44425
618	0.43142
620	0.4182
622	0.4056
624	0.39293
626	0.37994
628	0.36899
630	0.35952
632	0.34637
634	0.33495
636	0.32415
638	0.31234
640	0.30162
642	0.29301
644	0.28073
646	0.27079
648	0.25726
650	0.24669
652	0.23762
654	0.22792
656	0.21861
658	0.21023
660	0.20092
662	0.19255
664	0.1852
666	0.17737
668	0.16892
670	0.1629
672	0.15288
674	0.14725
676	0.13982
678	0.13481
680	0.12988
682	0.12503
684	0.11814
686	0.11431
688	0.10899
690	0.1043
692	0.10015
694	0.09678
696	0.09248
698	0.08849
700	0.0863
702	0.08317
704	0.08074
706	0.07793
708	0.07535
710	0.07339
712	0.0712
714	0.0694
716	0.06776
718	0.0665
720	0.06471
722	0.06353
724	0.0622
726	0.06126
728	0.06017
730	0.05915
732	0.0586
734	0.05798
736	0.05766
738	0.0568
740	0.05618
742	0.05555
744	0.05485
746	0.05414
748	0.05352
750	0.05266
752	0.05195
754	0.05125
756	0.05078
758	0.05007
760	0.04937
762	0.04898
764	0.04882
766	0.04851
768	0.04804
770	0.04773
772	0.04718
774	0.04679
776	0.04679
778	0.04624
780	0.04601
782	0.04601
784	0.04538
786	0.04499
788	0.04468
790	0.04444
792	0.04413
794	0.04374
796	0.04358
798	0.0435
800	0.04311