File: conjugated_ECPs/uv_vis_automated/initial_experimental_data_batch1/metadata/A2-80-B3-20-Red.txt
Wavelength (nm)	Absorbance
350	0.24016
352	0.24126
354	0.24278
356	0.2465
358	0.24933
360	0.25206
362	0.25457
364	0.25678
366	0.25882
368	0.2627
370	0.26611
372	0.27004
374	0.27497
376	0.27969
378	0.28404
380	0.28891
382	0.29468
384	0.30107
386	0.30427
388	0.31172
390	0.31717
392	0.32252
394	0.32881
396	0.33415
398	0.34139
400	0.34794
402	0.35769
404	0.36739
406	0.37609
408	0.3848
410	0.39318
412	0.40294
414	0.41442
416	0.42448
418	0.4345
420	0.44807
422	0.45772
424	0.46862
426	0.47874
428	0.49028
430	0.50532
432	0.51853
434	0.53248
436	0.54878
438	0.56896
440	0.5828
442	0.6
444	0.61295
446	0.62841
448	0.64446
450	0.65714
452	0.67769
454	0.69143
456	0.71056
458	0.72566
460	0.73667
462	0.7513
464	0.76776
466	0.78731
468	0.80031
470	0.81819
472	0.83077
474	0.84912
476	0.8637
478	0.88005
480	0.89861
482	0.90894
484	0.9201
486	0.92666
488	0.93662
490	0.94826
492	0.95334
494	0.95974
496	0.96702
498	0.97431
500	0.98134
502	0.98742
504	0.99072
506	0.99329
508	0.99775
510	0.99706
512	1
514	0.99853
516	0.99166
518	0.99035
520	0.98826
522	0.97987
524	0.96807
526	0.95471
528	0.94396
530	0.93321
532	0.91318
534	0.89342
536	0.87408
538	0.85242
540	0.83486
542	0.81735
544	0.79948
546	0.78301
548	0.77279
550	0.74438
552	0.7309
554	0.70899
556	0.69646
558	0.67313
560	0.64498
562	0.62008
564	0.5936
566	0.56996
568	0.53279
570	0.50081
572	0.47161
574	0.43156
576	0.39229
578	0.35979
580	0.32068
582	0.28781
584	0.24582
586	0.21374
588	0.18343
590	0.16535
592	0.13463
594	0.1189
596	0.10396
598	0.09111
600	0.08262
602	0.0746
604	0.0681
606	0.06291
608	0.05992
610	0.05672
612	0.05394
614	0.05164
616	0.04975
618	0.04802
620	0.0464
622	0.04514
624	0.04388
626	0.04283
628	0.04204
630	0.04142
632	0.04052
634	0.03995
636	0.03942
638	0.03853
640	0.03801
642	0.03754
644	0.03701
646	0.03649
648	0.03575
650	0.03533
652	0.03502
654	0.03455
656	0.03423
658	0.03387
660	0.0335
662	0.03303
664	0.03282
666	0.0325
668	0.03208
670	0.03187
672	0.03145
674	0.03125
676	0.03098
678	0.03067
680	0.03051
682	0.03014
684	0.02993
686	0.02978
688	0.02946
690	0.02925
692	0.02899
694	0.02889
696	0.02873
698	0.02831
700	0.02841
702	0.02799
704	0.0281
706	0.02773
708	0.02763
710	0.02752
712	0.02737
714	0.02721
716	0.027
718	0.02705
720	0.02689
722	0.02679
724	0.02663
726	0.02679
728	0.02663
730	0.02679
732	0.02679
734	0.02689
736	0.02695
738	0.027
740	0.0271
742	0.02689
744	0.02679
746	0.02658
748	0.02658
750	0.02616
752	0.026
754	0.0259
756	0.02564
758	0.02532
760	0.02522
762	0.02506
764	0.02506
766	0.02495
768	0.0248
770	0.0249
772	0.02464
774	0.02443
776	0.02448
778	0.02448
780	0.02438
782	0.02453
784	0.02422
786	0.02401
788	0.02401
790	0.02391
792	0.0238
794	0.0237
796	0.02354
798	0.02359
800	0.02343