File: conjugated_ECPs/uv_vis_automated/initial_experimental_data_batch1/metadata/A4-100.txt
Wavelength (nm)	Absorbance
350	0.18113
352	0.18124
354	0.18102
356	0.18207
358	0.18279
360	0.18368
362	0.18501
364	0.18612
366	0.18717
368	0.18955
370	0.19149
372	0.19381
374	0.19625
376	0.1989
378	0.20117
380	0.20383
382	0.20715
384	0.2102
386	0.21319
388	0.21734
390	0.22038
392	0.2237
394	0.22736
396	0.23024
398	0.23444
400	0.23849
402	0.24408
404	0.24972
406	0.25493
408	0.25996
410	0.26489
412	0.27087
414	0.27751
416	0.28371
418	0.28991
420	0.29838
422	0.30458
424	0.31189
426	0.31748
428	0.32501
430	0.3347
432	0.34245
434	0.35147
436	0.36227
438	0.37555
440	0.38463
442	0.39692
444	0.40606
446	0.41646
448	0.4282
450	0.43894
452	0.45438
454	0.46507
456	0.48051
458	0.49109
460	0.50044
462	0.5139
464	0.52635
466	0.54268
468	0.55525
470	0.57169
472	0.58326
474	0.60009
476	0.61498
478	0.63546
480	0.65572
482	0.67283
484	0.68811
486	0.70211
488	0.7154
490	0.73627
492	0.74895
494	0.76594
496	0.7805
498	0.79467
500	0.81211
502	0.82772
504	0.84095
506	0.8528
508	0.86559
510	0.87982
512	0.89271
514	0.90495
516	0.91857
518	0.93036
520	0.94442
522	0.95942
524	0.96856
526	0.98334
528	0.9917
530	0.99314
532	0.99989
534	0.99956
536	0.9964
538	0.99136
540	0.98428
542	0.97337
544	0.96468
546	0.9525
548	0.94254
550	0.92106
552	0.91298
554	0.89903
556	0.89305
558	0.88347
560	0.87284
562	0.86758
564	0.86177
566	0.85729
568	0.84522
570	0.83592
572	0.82556
574	0.80386
576	0.78222
578	0.75947
580	0.72669
582	0.69359
584	0.64172
586	0.59417
588	0.54002
590	0.50288
592	0.42549
594	0.37771
596	0.32617
598	0.2748
600	0.23428
602	0.1958
604	0.15965
606	0.13181
608	0.11448
610	0.09793
612	0.08359
614	0.07329
616	0.0651
618	0.05868
620	0.05359
622	0.05016
624	0.0475
626	0.04539
628	0.04395
630	0.04296
632	0.04185
634	0.04097
636	0.04019
638	0.03953
640	0.03903
642	0.03859
644	0.03809
646	0.03753
648	0.03709
650	0.03665
652	0.03643
654	0.03604
656	0.03565
658	0.03543
660	0.03504
662	0.03488
664	0.0346
666	0.03449
668	0.03416
670	0.03405
672	0.03366
674	0.03355
676	0.03333
678	0.03316
680	0.03294
682	0.03283
684	0.0325
686	0.0325
688	0.03233
690	0.03211
692	0.03183
694	0.03172
696	0.03161
698	0.03128
700	0.03139
702	0.03111
704	0.03111
706	0.03095
708	0.03095
710	0.03083
712	0.03061
714	0.0305
716	0.03039
718	0.03045
720	0.03028
722	0.03012
724	0.03017
726	0.03006
728	0.03006
730	0.03
732	0.03
734	0.03012
736	0.03017
738	0.03012
740	0.03023
742	0.03006
744	0.02995
746	0.02984
748	0.02973
750	0.02951
752	0.02934
754	0.0294
756	0.02934
758	0.02884
760	0.02879
762	0.02873
764	0.02884
766	0.02868
768	0.02857
770	0.02857
772	0.02834
774	0.02834
776	0.02834
778	0.02823
780	0.02812
782	0.02818
784	0.02812
786	0.0279
788	0.0279
790	0.02785
792	0.02768
794	0.02773
796	0.02768
798	0.02773
800	0.02762