File: conjugated_ECPs/uv_vis_automated/initial_experimental_data_batch1/metadata/A4-20-A2-80-Orange.txt
Wavelength (nm)	Absorbance
350	0.24676
352	0.24698
354	0.24858
356	0.25361
358	0.258
360	0.26217
362	0.26549
364	0.26784
366	0.26966
368	0.27234
370	0.27523
372	0.27865
374	0.284
376	0.28935
378	0.29428
380	0.2992
382	0.30583
384	0.31097
386	0.31493
388	0.32338
390	0.3283
392	0.33419
394	0.33997
396	0.34468
398	0.35099
400	0.35784
402	0.36586
404	0.37635
406	0.38609
408	0.39593
410	0.40492
412	0.41584
414	0.42675
416	0.43681
418	0.44666
420	0.45853
422	0.46784
424	0.4779
426	0.48764
428	0.50005
430	0.51717
432	0.53173
434	0.54917
436	0.56918
438	0.59058
440	0.60621
442	0.62376
444	0.63553
446	0.64858
448	0.66185
450	0.67405
452	0.68689
454	0.70605
456	0.72295
458	0.73697
460	0.74896
462	0.76629
464	0.78384
466	0.80589
468	0.82172
470	0.84013
472	0.85179
474	0.86923
476	0.88218
478	0.89856
480	0.91386
482	0.92306
484	0.93237
486	0.93933
488	0.94575
490	0.95623
492	0.96137
494	0.96993
496	0.97517
498	0.98406
500	0.99005
502	0.9939
504	0.99722
506	0.99872
508	0.99957
510	0.99818
512	0.99679
514	0.99422
516	0.99048
518	0.98598
520	0.97871
522	0.96972
524	0.95666
526	0.93986
528	0.92755
530	0.91386
532	0.89417
534	0.87063
536	0.85308
538	0.82943
540	0.81017
542	0.79026
544	0.77314
546	0.75559
548	0.74286
550	0.71525
552	0.7007
554	0.67812
556	0.66517
558	0.64291
560	0.61691
562	0.59326
564	0.57025
566	0.54746
568	0.51568
570	0.4886
572	0.46228
574	0.42846
576	0.39551
578	0.36811
580	0.3343
582	0.30605
584	0.26335
586	0.24045
588	0.21723
590	0.19722
592	0.17293
594	0.15859
596	0.14072
598	0.12788
600	0.11953
602	0.1114
604	0.10316
606	0.09877
608	0.09535
610	0.09224
612	0.08946
614	0.08721
616	0.0855
618	0.0839
620	0.08229
622	0.08111
624	0.07994
626	0.07897
628	0.07844
630	0.0778
632	0.07694
634	0.0764
636	0.07555
638	0.07501
640	0.07437
642	0.07405
644	0.07352
646	0.07298
648	0.07234
650	0.07191
652	0.0717
654	0.07095
656	0.07063
658	0.07041
660	0.06998
662	0.06956
664	0.06945
666	0.06913
668	0.0687
670	0.06827
672	0.06795
674	0.06795
676	0.06752
678	0.06731
680	0.06699
682	0.06677
684	0.06635
686	0.06645
688	0.06602
690	0.0657
692	0.06538
694	0.06495
696	0.06517
698	0.06463
700	0.06431
702	0.06431
704	0.06421
706	0.06378
708	0.06378
710	0.06378
712	0.06346
714	0.06324
716	0.06303
718	0.06303
720	0.06292
722	0.06281
724	0.06271
726	0.06271
728	0.06271
730	0.06292
732	0.06292
734	0.06346
736	0.06335
738	0.06356
740	0.06388
742	0.06356
744	0.06335
746	0.06303
748	0.06281
750	0.06217
752	0.06185
754	0.06164
756	0.06153
758	0.06089
760	0.06067
762	0.06025
764	0.06035
766	0.06014
768	0.05982
770	0.05982
772	0.0596
774	0.05928
776	0.05939
778	0.05939
780	0.05896
782	0.05886
784	0.05886
786	0.05853
788	0.05843
790	0.05811
792	0.05789
794	0.05768
796	0.05746
798	0.05768
800	0.05746