File: conjugated_ECPs/uv_vis_automated/initial_experimental_data_batch1/metadata/A4-35-A2-35-Orange.txt
Wavelength (nm)	Absorbance
350	0.27283
352	0.27337
354	0.27483
356	0.2796
358	0.28398
360	0.28851
362	0.29443
364	0.2982
366	0.30074
368	0.30566
370	0.30935
372	0.31365
374	0.31896
376	0.32449
378	0.32949
380	0.33595
382	0.34417
384	0.35117
386	0.35878
388	0.36823
390	0.37523
392	0.38253
394	0.38799
396	0.39337
398	0.40006
400	0.40583
402	0.41513
404	0.42712
406	0.43904
408	0.45065
410	0.46241
412	0.47517
414	0.48647
416	0.497
418	0.50554
420	0.5153
422	0.52368
424	0.53275
426	0.54282
428	0.55581
430	0.57534
432	0.5924
434	0.61208
436	0.63507
438	0.66021
440	0.67605
442	0.6925
444	0.70372
446	0.71256
448	0.72156
450	0.72909
452	0.74093
454	0.75
456	0.76622
458	0.77875
460	0.78998
462	0.80673
464	0.82457
466	0.84679
468	0.86216
470	0.88061
472	0.89314
474	0.90706
476	0.91943
478	0.9292
480	0.93981
482	0.94534
484	0.95126
486	0.9558
488	0.9601
490	0.96725
492	0.97086
494	0.97771
496	0.98147
498	0.98808
500	0.99347
502	0.99654
504	1
506	0.99869
508	0.99808
510	0.996
512	0.99439
514	0.99277
516	0.98793
518	0.98493
520	0.98163
522	0.97494
524	0.96571
526	0.95195
528	0.94227
530	0.9315
532	0.91152
534	0.89168
536	0.874
538	0.85201
540	0.83226
542	0.81242
544	0.79497
546	0.77652
548	0.76399
550	0.73662
552	0.72279
554	0.70303
556	0.69234
558	0.67382
560	0.65275
562	0.63492
564	0.61685
566	0.5994
568	0.57311
570	0.55074
572	0.52768
574	0.49808
576	0.46733
578	0.44096
580	0.40629
582	0.37685
584	0.32795
586	0.30281
588	0.27345
590	0.24646
592	0.21079
594	0.18558
596	0.16613
598	0.14683
600	0.13338
602	0.12016
604	0.10601
606	0.09932
608	0.09363
610	0.08895
612	0.08479
614	0.08172
616	0.07911
618	0.07688
620	0.07488
622	0.07319
624	0.07203
626	0.07088
628	0.06988
630	0.06911
632	0.06827
634	0.06757
636	0.06681
638	0.06611
640	0.06542
642	0.06496
644	0.06458
646	0.06373
648	0.06327
650	0.06281
652	0.06242
654	0.06188
656	0.06142
658	0.06112
660	0.06065
662	0.06012
664	0.06019
666	0.05973
668	0.05935
670	0.05904
672	0.05873
674	0.05835
676	0.05819
678	0.05789
680	0.05766
682	0.05727
684	0.05704
686	0.05681
688	0.05658
690	0.05635
692	0.05597
694	0.05573
696	0.05573
698	0.05504
700	0.05504
702	0.05474
704	0.05474
706	0.05443
708	0.05443
710	0.05412
712	0.05404
714	0.05381
716	0.05366
718	0.05351
720	0.05351
722	0.0532
724	0.05327
726	0.05312
728	0.05327
730	0.05327
732	0.05304
734	0.05343
736	0.05343
738	0.05351
740	0.05358
742	0.05343
744	0.0532
746	0.05281
748	0.05289
750	0.05243
752	0.05212
754	0.05197
756	0.05189
758	0.05151
760	0.05105
762	0.05105
764	0.05089
766	0.05081
768	0.05089
770	0.05066
772	0.05028
774	0.05012
776	0.05028
778	0.05012
780	0.04997
782	0.04989
784	0.04989
786	0.04966
788	0.04935
790	0.04928
792	0.04912
794	0.04889
796	0.04889
798	0.04897
800	0.04874