File: conjugated_ECPs/uv_vis_automated/initial_experimental_data_batch1/metadata/A4-50-B3-50-Yellow.txt
Wavelength (nm)	Absorbance
350	0.44048
352	0.44869
354	0.45983
356	0.47321
358	0.48385
360	0.49362
362	0.5032
364	0.51298
366	0.52051
368	0.53214
370	0.54801
372	0.56226
374	0.58106
376	0.59481
378	0.61068
380	0.62972
382	0.64889
384	0.66986
386	0.68511
388	0.70988
390	0.73097
392	0.74933
394	0.76657
396	0.78119
398	0.79625
400	0.81312
402	0.84405
404	0.85793
406	0.87759
408	0.88979
410	0.90485
412	0.92022
414	0.93354
416	0.9499
418	0.95955
420	0.97312
422	0.97903
424	0.98164
426	0.98662
428	0.99166
430	0.99745
432	0.99876
434	0.99925
436	0.99745
438	0.98998
440	0.98538
442	0.97617
444	0.96814
446	0.95855
448	0.94486
450	0.93229
452	0.91188
454	0.88524
456	0.86297
458	0.83963
460	0.82233
462	0.7942
464	0.76539
466	0.72767
468	0.69544
470	0.65648
472	0.63146
474	0.58379
476	0.54552
478	0.49754
480	0.44589
482	0.40699
484	0.37457
486	0.34514
488	0.31869
490	0.28409
492	0.25963
494	0.23144
496	0.21246
498	0.18657
500	0.1674
502	0.14774
504	0.13361
506	0.12197
508	0.11177
510	0.10218
512	0.09441
514	0.08787
516	0.08208
518	0.07779
520	0.07393
522	0.0702
524	0.06733
526	0.06466
528	0.06292
530	0.06161
532	0.06049
534	0.05912
536	0.0585
538	0.05769
540	0.05725
542	0.05657
544	0.0562
546	0.05632
548	0.05595
550	0.05551
552	0.05545
554	0.05507
556	0.05483
558	0.05483
560	0.05451
562	0.05451
564	0.05427
566	0.05433
568	0.05414
570	0.05402
572	0.05383
574	0.05383
576	0.05371
578	0.05383
580	0.05358
582	0.05377
584	0.05364
586	0.05352
588	0.05346
590	0.05339
592	0.05327
594	0.05302
596	0.05302
598	0.05302
600	0.0529
602	0.0529
604	0.05283
606	0.05265
608	0.05283
610	0.05283
612	0.05265
614	0.05265
616	0.0529
618	0.05271
620	0.05259
622	0.05246
624	0.05234
626	0.05227
628	0.05227
630	0.0524
632	0.05234
634	0.0524
636	0.05215
638	0.05209
640	0.05227
642	0.05203
644	0.05196
646	0.05196
648	0.05184
650	0.05178
652	0.05171
654	0.05184
656	0.05153
658	0.05153
660	0.05153
662	0.05147
664	0.05159
666	0.05159
668	0.05134
670	0.0514
672	0.0514
674	0.05122
676	0.05115
678	0.05115
680	0.05109
682	0.05103
684	0.05097
686	0.05109
688	0.05103
690	0.05109
692	0.05091
694	0.05066
696	0.05078
698	0.05047
700	0.05047
702	0.05066
704	0.05059
706	0.05053
708	0.05041
710	0.05047
712	0.05028
714	0.05047
716	0.05028
718	0.05035
720	0.05035
722	0.05028
724	0.05003
726	0.05003
728	0.0501
730	0.0501
732	0.04997
734	0.05003
736	0.05003
738	0.04997
740	0.05003
742	0.05016
744	0.04991
746	0.0501
748	0.04991
750	0.04985
752	0.04991
754	0.04997
756	0.0496
758	0.04991
760	0.04979
762	0.04966
764	0.04979
766	0.04966
768	0.04985
770	0.04972
772	0.0496
774	0.04954
776	0.0496
778	0.04935
780	0.04941
782	0.04947
784	0.04941
786	0.04947
788	0.04923
790	0.04923
792	0.04929
794	0.04935
796	0.04941
798	0.04923
800	0.04935