File: conjugated_ECPs/uv_vis_automated/initial_experimental_data_batch1/metadata/A4-50-A2-50-Orange.txt
Wavelength (nm)	Absorbance
350	0.30697
352	0.30782
354	0.30893
356	0.3135
358	0.31839
360	0.3227
362	0.32648
364	0.33072
366	0.33536
368	0.34116
370	0.34612
372	0.35174
374	0.35878
376	0.36459
378	0.37046
380	0.37693
382	0.38404
384	0.39291
386	0.39866
388	0.40988
390	0.41869
392	0.42639
394	0.43396
396	0.43944
398	0.44564
400	0.45393
402	0.46476
404	0.47461
406	0.48401
408	0.49406
410	0.50966
412	0.51951
414	0.53139
416	0.54209
418	0.55097
420	0.56193
422	0.56891
424	0.57805
426	0.58705
428	0.5986
430	0.61518
432	0.63038
434	0.64729
436	0.66752
438	0.68996
440	0.70354
442	0.71926
444	0.73003
446	0.73884
448	0.74706
450	0.75424
452	0.76286
454	0.77662
456	0.78804
458	0.79823
460	0.80775
462	0.82133
464	0.83581
466	0.85258
468	0.86655
470	0.88175
472	0.89082
474	0.9057
476	0.91654
478	0.92802
480	0.93872
482	0.9461
484	0.95184
486	0.95732
488	0.96222
490	0.96959
492	0.97448
494	0.97305
496	0.98369
498	0.98871
500	0.9923
502	0.99719
504	0.997
506	0.99778
508	0.99967
510	0.99811
512	0.99811
514	0.99471
516	0.99256
518	0.99106
520	0.98969
522	0.98512
524	0.97579
526	0.96691
528	0.95941
530	0.9461
532	0.93487
534	0.91804
536	0.90205
538	0.87999
540	0.8625
542	0.84443
544	0.82746
546	0.80945
548	0.79725
550	0.76866
552	0.75548
554	0.73571
556	0.72572
558	0.70837
560	0.68774
562	0.67241
564	0.65701
566	0.6418
568	0.61903
570	0.5988
572	0.57824
574	0.55129
576	0.52323
578	0.49889
580	0.46541
582	0.43696
584	0.39611
586	0.36192
588	0.32596
590	0.30266
592	0.25809
594	0.24073
596	0.21045
598	0.1865
600	0.16941
602	0.15283
604	0.1341
606	0.12516
608	0.11714
610	0.11087
612	0.10474
614	0.10043
616	0.09658
618	0.09312
620	0.09025
622	0.08777
624	0.08555
626	0.08372
628	0.08242
630	0.08138
632	0.07994
634	0.07877
636	0.07753
638	0.07642
640	0.07557
642	0.07478
644	0.07381
646	0.07296
648	0.07178
650	0.071
652	0.07035
654	0.06956
656	0.06885
658	0.06826
660	0.06767
662	0.06708
664	0.06663
666	0.06604
668	0.06526
670	0.0648
672	0.06402
674	0.06376
676	0.06304
678	0.06252
680	0.06219
682	0.06186
684	0.06121
686	0.06088
688	0.06036
690	0.05984
692	0.05925
694	0.05886
696	0.05867
698	0.05795
700	0.05782
702	0.05749
704	0.05736
706	0.05677
708	0.05645
710	0.05593
712	0.05553
714	0.05527
716	0.05501
718	0.05495
720	0.05449
722	0.05436
724	0.05403
726	0.0539
728	0.05371
730	0.05384
732	0.05358
734	0.05364
736	0.05358
738	0.05364
740	0.05358
742	0.05332
744	0.05305
746	0.05266
748	0.0524
750	0.05181
752	0.05149
754	0.05129
756	0.0511
758	0.05044
760	0.05018
762	0.04999
764	0.04999
766	0.04973
768	0.0496
770	0.04953
772	0.04927
774	0.04901
776	0.04888
778	0.04875
780	0.04836
782	0.04829
784	0.04836
786	0.04796
788	0.0479
790	0.0477
792	0.04738
794	0.04718
796	0.04705
798	0.04705
800	0.04692