File: conjugated_ECPs/uv_vis_automated/initial_experimental_data_batch1/metadata/A4-65-A2-35-Red.txt
Wavelength (nm)	Absorbance
350	0.23099
352	0.23186
354	0.23367
356	0.23755
358	0.24054
360	0.24447
362	0.24778
364	0.25147
366	0.25453
368	0.26046
370	0.26514
372	0.2697
374	0.27469
376	0.27925
378	0.28362
380	0.28855
382	0.29511
384	0.30079
386	0.30709
388	0.31527
390	0.32133
392	0.32701
394	0.33319
396	0.33799
398	0.34361
400	0.34942
402	0.35604
404	0.36415
406	0.37208
408	0.38026
410	0.38881
412	0.39849
414	0.40773
416	0.41497
418	0.42246
420	0.43201
422	0.43838
424	0.44581
426	0.45349
428	0.46279
430	0.47628
432	0.48839
434	0.50231
436	0.5181
438	0.5374
440	0.54907
442	0.56399
444	0.57448
446	0.58372
448	0.59371
450	0.60214
452	0.615
454	0.6228
456	0.63703
458	0.64815
460	0.65664
462	0.67006
464	0.68286
466	0.70159
468	0.71569
470	0.73099
472	0.74185
474	0.76014
476	0.77457
478	0.7893
480	0.80753
482	0.81964
484	0.83075
486	0.83787
488	0.84855
490	0.86315
492	0.8709
494	0.88382
496	0.89175
498	0.9038
500	0.91347
502	0.92321
504	0.93258
506	0.93645
508	0.94444
510	0.95143
512	0.95817
514	0.9641
516	0.97116
518	0.97746
520	0.9852
522	0.9907
524	0.99195
526	0.99913
528	0.99863
530	0.99819
532	0.99382
534	0.98464
536	0.97503
538	0.9631
540	0.94731
542	0.93357
544	0.91784
546	0.90248
548	0.892
550	0.86584
552	0.85366
554	0.83762
556	0.83057
558	0.81845
560	0.80797
562	0.79973
564	0.79105
566	0.78237
568	0.77001
570	0.75746
572	0.7441
574	0.72256
576	0.69734
578	0.67449
580	0.64097
582	0.60981
584	0.56068
586	0.51673
588	0.46779
590	0.43439
592	0.36752
594	0.34062
596	0.28849
598	0.24747
600	0.21676
602	0.1866
604	0.15145
606	0.13497
608	0.12018
610	0.1085
612	0.09777
614	0.09009
616	0.08372
618	0.07879
620	0.07435
622	0.07098
624	0.06811
626	0.06593
628	0.06437
630	0.06318
632	0.06149
634	0.06037
636	0.059
638	0.05818
640	0.05712
642	0.05625
644	0.05544
646	0.05456
648	0.05369
650	0.053
652	0.05232
654	0.05163
656	0.05119
658	0.05051
660	0.04994
662	0.04932
664	0.04888
666	0.04832
668	0.04776
670	0.04738
672	0.04682
674	0.04645
676	0.04601
678	0.04545
680	0.04507
682	0.0447
684	0.0442
686	0.04383
688	0.04351
690	0.04301
692	0.04258
694	0.04226
696	0.04202
698	0.04145
700	0.0412
702	0.04077
704	0.04052
706	0.04008
708	0.03996
710	0.03964
712	0.03927
714	0.03896
716	0.03871
718	0.03839
720	0.03827
722	0.03796
724	0.03777
726	0.03758
728	0.03746
730	0.03746
732	0.0374
734	0.03733
736	0.03733
738	0.03733
740	0.03727
742	0.03702
744	0.03665
746	0.03646
748	0.03652
750	0.03577
752	0.03527
754	0.03509
756	0.03484
758	0.03434
760	0.03384
762	0.0339
764	0.03377
766	0.03371
768	0.0334
770	0.03328
772	0.03303
774	0.03265
776	0.03278
778	0.03265
780	0.03228
782	0.03228
784	0.03215
786	0.0319
788	0.03171
790	0.03153
792	0.03128
794	0.03128
796	0.03097
798	0.03109
800	0.03084