File: conjugated_ECPs/uv_vis_automated/initial_experimental_data_batch1/metadata/A4-80-A2-20-Orange.txt
Wavelength (nm)	Absorbance
350	0.31351
352	0.31435
354	0.31594
356	0.31996
358	0.32441
360	0.32864
362	0.33298
364	0.33806
366	0.34208
368	0.35108
370	0.35775
372	0.36431
374	0.3713
376	0.37722
378	0.3822
380	0.38823
382	0.39627
384	0.40326
386	0.41088
388	0.42199
390	0.42993
392	0.43776
394	0.44539
396	0.45174
398	0.45809
400	0.46391
402	0.47195
404	0.48127
406	0.4892
408	0.49894
410	0.50878
412	0.5199
414	0.53101
416	0.54043
418	0.54837
420	0.55747
422	0.56488
424	0.57229
426	0.57949
428	0.5906
430	0.60489
432	0.6178
434	0.634
436	0.65231
438	0.67443
440	0.68851
442	0.70406
444	0.71454
446	0.7246
448	0.73243
450	0.73973
452	0.74873
454	0.75497
456	0.76566
458	0.77456
460	0.78334
462	0.79467
464	0.80726
466	0.82462
468	0.83785
470	0.85309
472	0.86219
474	0.87902
476	0.88992
478	0.90421
480	0.91628
482	0.92411
484	0.93215
486	0.93776
488	0.94327
490	0.95248
492	0.9566
494	0.9638
496	0.96793
498	0.9747
500	0.98084
502	0.98666
504	0.99069
506	0.99227
508	0.99513
510	0.99682
512	0.99905
514	0.9982
516	0.99926
518	0.99936
520	0.99947
522	0.9982
524	0.99471
526	0.98857
528	0.98381
530	0.97682
532	0.96412
534	0.94898
536	0.93607
538	0.91638
540	0.89977
542	0.88177
544	0.86378
546	0.84632
548	0.83298
550	0.80409
552	0.78959
554	0.7699
556	0.75974
558	0.7427
560	0.72481
562	0.70989
564	0.69602
566	0.68205
568	0.66215
570	0.64416
572	0.62606
574	0.60087
576	0.57324
578	0.54943
580	0.51736
582	0.4874
584	0.43724
586	0.40813
588	0.375
590	0.3424
592	0.29572
594	0.26058
596	0.2337
598	0.20417
600	0.18237
602	0.16056
604	0.13548
606	0.12362
608	0.11336
610	0.10489
612	0.09738
614	0.09145
616	0.08711
618	0.0833
620	0.08002
622	0.07748
624	0.07536
626	0.07367
628	0.0725
630	0.07144
632	0.07039
634	0.06933
636	0.06816
638	0.06742
640	0.06668
642	0.06605
644	0.0652
646	0.06435
648	0.06351
650	0.06287
652	0.06234
654	0.06171
656	0.06139
658	0.06086
660	0.06033
662	0.05959
664	0.05948
666	0.05885
668	0.05843
670	0.05811
672	0.05747
674	0.05726
676	0.05673
678	0.05631
680	0.05599
682	0.05546
684	0.05514
686	0.05493
688	0.0544
690	0.05419
692	0.05377
694	0.05356
696	0.05334
698	0.05271
700	0.0526
702	0.05239
704	0.0525
706	0.05165
708	0.05165
710	0.05155
712	0.05091
714	0.05112
716	0.05091
718	0.0507
720	0.05059
722	0.05049
724	0.05049
726	0.05038
728	0.05028
730	0.05038
732	0.05049
734	0.05091
736	0.05102
738	0.05102
740	0.05133
742	0.05112
744	0.05112
746	0.05059
748	0.05038
750	0.04975
752	0.04922
754	0.04911
756	0.04901
758	0.04816
760	0.04784
762	0.04784
764	0.04795
766	0.04784
768	0.04763
770	0.04773
772	0.04699
774	0.04689
776	0.0471
778	0.0471
780	0.04689
782	0.04657
784	0.04668
786	0.04625
788	0.04604
790	0.04625
792	0.04594
794	0.04562
796	0.04541
798	0.04562
800	0.04551