File: conjugated_ECPs/uv_vis_automated/initial_experimental_data_batch1/metadata/A4-90-B3-10-Red.txt
Wavelength (nm)	Absorbance
350	0.29154
352	0.29213
354	0.29469
356	0.29744
358	0.29961
360	0.30285
362	0.30669
364	0.31062
366	0.31396
368	0.31898
370	0.32724
372	0.33451
374	0.34258
376	0.34769
378	0.35211
380	0.35801
382	0.36293
384	0.3704
386	0.37414
388	0.38427
390	0.39499
392	0.40354
394	0.41278
396	0.42124
398	0.42812
400	0.4355
402	0.44749
404	0.45457
406	0.46175
408	0.46873
410	0.47729
412	0.48869
414	0.50108
416	0.51445
418	0.52557
420	0.541
422	0.55113
424	0.56185
426	0.5706
428	0.58279
430	0.59833
432	0.61101
434	0.62419
436	0.64051
438	0.66067
440	0.6767
442	0.69459
444	0.70836
446	0.7233
448	0.73894
450	0.75074
452	0.76323
454	0.77935
456	0.79145
458	0.80039
460	0.80964
462	0.82183
464	0.83314
466	0.84985
468	0.86205
470	0.8767
472	0.88604
474	0.90285
476	0.91524
478	0.93137
480	0.94582
482	0.95388
484	0.96136
486	0.96657
488	0.97188
490	0.9765
492	0.9825
494	0.98515
496	0.9885
498	0.99007
500	0.99302
502	0.99725
504	0.99902
506	0.99912
508	0.99941
510	0.99803
512	0.99685
514	0.99381
516	0.98879
518	0.98368
520	0.97758
522	0.96932
524	0.95801
526	0.94494
528	0.9355
530	0.92527
532	0.90846
534	0.8882
536	0.87158
538	0.85084
540	0.83255
542	0.81042
544	0.79312
546	0.77188
548	0.75811
550	0.72409
552	0.70531
554	0.67955
556	0.6645
558	0.63894
560	0.6119
562	0.58938
564	0.56785
566	0.54828
568	0.52262
570	0.49931
572	0.47886
574	0.45261
576	0.42537
578	0.40472
580	0.37788
582	0.35251
584	0.31613
586	0.29567
588	0.27237
590	0.25074
592	0.2235
594	0.20462
596	0.17925
598	0.15919
600	0.14454
602	0.1296
604	0.1116
606	0.10147
608	0.09292
610	0.08555
612	0.07856
614	0.07345
616	0.06912
618	0.06549
620	0.06254
622	0.06028
624	0.0586
626	0.05703
628	0.05615
630	0.05565
632	0.05497
634	0.05428
636	0.05359
638	0.05329
640	0.053
642	0.05251
644	0.05211
646	0.05211
648	0.05133
650	0.05123
652	0.05074
654	0.05084
656	0.05044
658	0.05034
660	0.04995
662	0.04975
664	0.04995
666	0.05005
668	0.04966
670	0.04946
672	0.04946
674	0.04926
676	0.04916
678	0.04897
680	0.04897
682	0.04867
684	0.04877
686	0.04857
688	0.04838
690	0.04857
692	0.04818
694	0.04818
696	0.04818
698	0.04779
700	0.04759
702	0.04769
704	0.04759
706	0.04769
708	0.04739
710	0.04759
712	0.0472
714	0.0473
716	0.0471
718	0.047
720	0.04671
722	0.0469
724	0.04671
726	0.0469
728	0.04661
730	0.04671
732	0.04671
734	0.04621
736	0.04641
738	0.04631
740	0.04631
742	0.04631
744	0.04602
746	0.04661
748	0.04651
750	0.04631
752	0.04602
754	0.04602
756	0.04582
758	0.04592
760	0.04651
762	0.04612
764	0.04661
766	0.04612
768	0.04631
770	0.04621
772	0.04651
774	0.04602
776	0.04641
778	0.04592
780	0.04602
782	0.04592
784	0.04631
786	0.04641
788	0.04602
790	0.04621
792	0.04651
794	0.04661
796	0.04651
798	0.04641
800	0.04661