File: conjugated_ECPs/uv_vis_automated/Adv. Mater., 20, 2772-2776, 2008/metadata/Polymer_B.txt
wavelength	absor
360	0.318458
362	0.321217
364	0.327383
366	0.33428
368	0.341176
370	0.348073
372	0.355327
374	0.365258
376	0.375189
378	0.384219
380	0.389047
382	0.393874
384	0.398702
386	0.403529
388	0.416471
390	0.4336714
392	0.439189
394	0.444706
396	0.450223
398	0.458905
400	0.46856
402	0.47954
404	0.492414
406	0.498147
408	0.499986
410	0.501826
412	0.50426
414	0.511156
416	0.518053
418	0.520278
420	0.521066
422	0.521855
424	0.522643
426	0.521493
428	0.519286
430	0.517079
432	0.513648
434	0.509707
436	0.505766
438	0.501826
440	0.488844
442	0.470808
444	0.454593
446	0.442141
448	0.429992
450	0.415191
452	0.397222
454	0.385805
456	0.376613
458	0.367421
460	0.359768
462	0.352216
464	0.344663
466	0.333554
468	0.318154
470	0.309412
472	0.301799
474	0.294186
476	0.287634
478	0.282334
480	0.277034
482	0.271734
484	0.267878
486	0.2656975
488	0.263517
490	0.261336
492	0.259155
494	0.259482
496	0.259839
498	0.260197
500	0.260554
502	0.26268
504	0.265667
506	0.268653
508	0.27164
510	0.275124
512	0.279903
514	0.284682
516	0.289461
518	0.29435
520	0.300467
522	0.306584
524	0.312701
526	0.318783
528	0.3243
530	0.329817
532	0.335335
534	0.340852
536	0.349845
538	0.359056
540	0.368267
542	0.375948
544	0.383448
546	0.390948
548	0.39876
550	0.406708
552	0.414655
554	0.423424
556	0.432545
558	0.441665
560	0.450175
562	0.45862
564	0.467117
566	0.47606
568	0.485003
570	0.494543
572	0.504658
574	0.514607
576	0.52324
578	0.531873
580	0.54055
582	0.550855
584	0.56116
586	0.572014
588	0.583084
590	0.59402
592	0.603982
594	0.613944
596	0.623761
598	0.633522
600	0.643328
602	0.653443
604	0.663558
606	0.673713
608	0.683905
610	0.693968
612	0.703183
614	0.712399
616	0.721544
618	0.730627
620	0.739709
622	0.748906
624	0.758143
626	0.76738
628	0.775803
630	0.783941
632	0.792079
634	0.800236
636	0.808399
638	0.816562
640	0.825418
642	0.834313
644	0.8432
646	0.852039
648	0.860878
650	0.868784
652	0.87498
654	0.881175
656	0.887371
658	0.901101
660	0.915947
662	0.925029
664	0.933864
666	0.942399
668	0.950405
670	0.958412
672	0.965887
674	0.972437
676	0.978987
678	0.985537
680	0.989593
682	0.991759
684	0.993925
686	0.996091
688	0.997331
690	0.994162
692	0.990994
694	0.987826
696	0.983814
698	0.975906
700	0.967998
702	0.959466
704	0.948109
706	0.935864
708	0.919657
710	0.903683
712	0.887902
714	0.873167
716	0.855717
718	0.835114
720	0.819299
722	0.802757
724	0.785858
726	0.77043
728	0.754835
730	0.738984
732	0.724926
734	0.712078
736	0.699395
738	0.687367
740	0.675331
742	0.66326
744	0.651199
746	0.641721
748	0.632242
750	0.623185
752	0.61474
754	0.606295
756	0.597633
758	0.588832
760	0.580019
762	0.570364
764	0.560709
766	0.55063
768	0.540285
770	0.529644
772	0.517941
774	0.506183
776	0.491777
778	0.476972
780	0.460774
782	0.443951
784	0.426815
786	0.409875
788	0.392974
790	0.376119
792	0.359592
794	0.342952
796	0.325946
798	0.310236
799	0.302595