File: conjugated_ECPs/uv_vis_automated/Adv. Mater., 20, 2772-2776, 2008/metadata/Polymer_A.csv
Wavelength (nm),Absorbance
360,0.239653
362,0.242228
364,0.244803
366,0.248191
368,0.251796
370,0.255415
372,0.25917
374,0.262925
376,0.26668
378,0.270435
380,0.275951
382,0.28196
384,0.28814
386,0.296151
388,0.304162
390,0.31085
392,0.3168583
394,0.322866
396,0.329088
398,0.335596
400,0.342105
402,0.349029
404,0.357708
406,0.366386
408,0.377619
410,0.389413
412,0.399927
414,0.410441
416,0.421121
418,0.431802
420,0.441198
422,0.44961
424,0.458021
426,0.467609
428,0.477372
430,0.485312
432,0.492521
434,0.499731
436,0.506941
438,0.514151
440,0.52081
442,0.526317
444,0.531825
446,0.537036
448,0.5392212
450,0.541406
452,0.542575
454,0.536567
456,0.530559
458,0.524551
460,0.518543
462,0.512534
464,0.508288
466,0.504683
468,0.500421
470,0.479393
472,0.467012
474,0.457464
476,0.452657
478,0.447851
480,0.438381
482,0.42583
484,0.40807
486,0.403063
488,0.398057
490,0.392024
492,0.383012
494,0.374056
496,0.365602
498,0.357149
500,0.353997
502,0.354335
504,0.354672
506,0.355009
508,0.355347
510,0.355684
512,0.358985
514,0.363305
516,0.367625
518,0.371945
520,0.377957
522,0.384639
524,0.391321
526,0.398556
528,0.4074163
530,0.416276
532,0.425324
534,0.435685
536,0.446046
538,0.456267
540,0.46638
542,0.47661
544,0.487375
546,0.498139
548,0.50924
550,0.520346
552,0.528659
554,0.536888
556,0.547496
558,0.569135
560,0.582542
562,0.595847
564,0.608328
566,0.620809
568,0.634403
570,0.648008
572,0.660589
574,0.673152
576,0.685477
578,0.697859
580,0.711197
582,0.724512
584,0.737748
586,0.75032
588,0.7604
590,0.77048
592,0.783253
594,0.799131
596,0.810777
598,0.822421
600,0.83397
602,0.845494
604,0.856079
606,0.866412
608,0.876704
610,0.886937
612,0.897171
614,0.907404
616,0.917638
618,0.927279
620,0.936597
622,0.945813
624,0.95392
626,0.962026
628,0.969756
630,0.975439
632,0.981123
634,0.986806
636,0.990634
638,0.992558
640,0.994482
642,0.996407
644,0.996574
646,0.994724
648,0.992875
650,0.991025
652,0.987536
654,0.981937
656,0.976339
658,0.97074
660,0.963145
662,0.954972
664,0.946799
666,0.938464
668,0.930045
670,0.921627
672,0.91019
674,0.89848
676,0.887161
678,0.879706
680,0.872251
682,0.864795
684,0.856344
686,0.846932
688,0.837519
690,0.826656
692,0.815341
694,0.803969
696,0.792554
698,0.780657
700,0.768367
702,0.755047
704,0.740838
706,0.718812
708,0.703006
710,0.671064
712,0.660446
714,0.647242
716,0.62635
718,0.606216
720,0.585912
722,0.562513
724,0.538684
726,0.515267
728,0.492149
730,0.469576
732,0.446879
734,0.424251
736,0.402722
738,0.377709
740,0.35618
742,0.333675
744,0.31355
746,0.295187
748,0.278204
750,0.260779
752,0.243051
754,0.227357
756,0.211931
758,0.197277
760,0.18341
762,0.170046
764,0.157683
766,0.146
768,0.134451
770,0.123102
772,0.112204
774,0.103103
776,0.0940013
778,0.0859424
780,0.0784765
782,0.0710105
784,0.0642812
786,0.0582184
788,0.0521557
790,0.046093
792,0.0420488
794,0.0383248
796,0.0346008
798,0.0308767
799,0.0293475