File: conjugated_ECPs/uv_vis_automated/Adv. Optical Mater. 6, 1800594, 2018/metadata/ECP-green.txt
Wavelength (nm),Absorbance
320,0.248405
322,0.248649
324,0.248649
326,0.247299
328,0.245714
330,0.241319
332,0.236246
334,0.231384
336,0.227157
338,0.22293
340,0.218892
342,0.215722
344,0.212973
346,0.212973
348,0.213157
350,0.21527
352,0.217384
354,0.219516
356,0.222686
358,0.225857
360,0.229643
362,0.233448
364,0.238303
366,0.244643
368,0.250517
370,0.255589
372,0.260662
374,0.266762
376,0.273103
378,0.278801
380,0.282605
382,0.28641
384,0.295286
386,0.306382
388,0.317135
390,0.327703
392,0.33827
394,0.352519
396,0.369014
398,0.376939
400,0.384865
402,0.412988
404,0.424084
406,0.434478
408,0.455957
410,0.470973
412,0.482076
414,0.49053
416,0.519654
418,0.531222
420,0.544432
422,0.558812
424,0.569908
426,0.578709
428,0.586635
430,0.603568
432,0.612022
434,0.619141
436,0.625481
438,0.631822
440,0.638162
442,0.64245
444,0.644986
446,0.647522
448,0.645492
450,0.643378
452,0.641265
454,0.633362
456,0.626188
458,0.621116
460,0.616043
462,0.60993
464,0.603589
466,0.589878
468,0.579589
470,0.570216
472,0.556714
474,0.539805
476,0.521503
478,0.500892
480,0.482162
482,0.471427
484,0.458746
486,0.433303
488,0.426638
490,0.405038
492,0.399965
494,0.394893
496,0.385046
498,0.374902
500,0.368243
502,0.367186
504,0.36613
506,0.365405
508,0.365405
510,0.365405
512,0.367205
514,0.369583
516,0.371961
518,0.374339
520,0.377665
522,0.381469
524,0.385432
526,0.390716
528,0.396
530,0.401227
532,0.405031
534,0.408836
536,0.416146
538,0.427242
540,0.438108
542,0.448676
544,0.458292
546,0.467803
548,0.476772
550,0.485649
552,0.493504
554,0.498939
556,0.504374
558,0.509808
560,0.524973
562,0.542459
564,0.553027
566,0.563595
568,0.573865
570,0.581791
572,0.590454
574,0.6092
576,0.621881
578,0.634562
580,0.647243
582,0.659924
584,0.672605
586,0.685286
588,0.697968
590,0.710649
592,0.729946
594,0.740438
596,0.748692
598,0.761373
600,0.774054
602,0.792484
604,0.801995
606,0.811703
608,0.82227
610,0.836284
612,0.850141
614,0.864743
616,0.873816
618,0.878146
620,0.884486
622,0.890835
624,0.900346
626,0.907786
628,0.915184
630,0.922581
632,0.928192
634,0.933626
636,0.939061
638,0.943749
640,0.946919
642,0.950089
644,0.953259
646,0.955676
648,0.955676
650,0.955676
652,0.957114
654,0.959227
656,0.961341
658,0.958932
660,0.953649
662,0.948365
664,0.944964
666,0.943152
668,0.941341
670,0.939529
672,0.936411
674,0.933241
676,0.93007
678,0.922655
680,0.91473
682,0.905999
684,0.897122
686,0.889589
688,0.885362
690,0.877946
692,0.869259
694,0.858292
696,0.841384
698,0.827276
700,0.814595
702,0.798005
704,0.782746
706,0.769319
708,0.744411
710,0.73173
712,0.719049
714,0.681159
716,0.654022
718,0.642832
720,0.628324
722,0.605076
724,0.570459
726,0.542746
728,0.516281
730,0.494649
732,0.473373
734,0.450662
736,0.431438
738,0.402443
740,0.389649
742,0.378984
744,0.362076
746,0.335973
748,0.316413
750,0.305
752,0.293535
754,0.280854
756,0.263357
758,0.245762
760,0.233081
762,0.2204
764,0.207719
766,0.196141
768,0.186277
770,0.176856
772,0.171924
774,0.166993
776,0.161368
778,0.155555
780,0.149743
782,0.142412
784,0.134486
786,0.12848
788,0.123408
790,0.118627
792,0.116091
794,0.113555
796,0.108897
798,0.10264
799,0.101281