File: conjugated_ECPs/uv_vis_automated/Adv. Optical Mater. 6, 1800594, 2018/metadata/ECP-magenta.txt
Wavelength (nm),Absorbance
400,0.152486
402,0.156408
404,0.161244
406,0.166308
408,0.171372
410,0.176436
412,0.1815
414,0.186646
416,0.191935
418,0.197225
420,0.202515
422,0.207804
424,0.21362
426,0.221431
428,0.229243
430,0.237055
432,0.244866
434,0.252997
436,0.261172
438,0.269348
440,0.27757
442,0.287715
444,0.297861
446,0.308006
448,0.318787
450,0.330474
452,0.34216
454,0.354917
456,0.368004
458,0.381091
460,0.394482
462,0.407917
464,0.421803
466,0.435874
468,0.449946
470,0.464058
472,0.478251
474,0.492444
476,0.506836
478,0.52147
480,0.536162
482,0.552168
484,0.568173
486,0.586443
488,0.605034
490,0.622829
492,0.637916
494,0.651983
496,0.663686
498,0.675389
500,0.687092
502,0.698795
504,0.708503
506,0.716108
508,0.723714
510,0.731319
512,0.740457
514,0.749812
516,0.759167
518,0.768522
520,0.781986
522,0.795552
524,0.809608
526,0.82448
528,0.83876
530,0.846984
532,0.855209
534,0.863433
536,0.866291
538,0.859503
540,0.852715
542,0.845927
544,0.839138
546,0.83235
548,0.816269
550,0.793452
552,0.77267
554,0.754778
556,0.739237
558,0.73088
560,0.722523
562,0.714166
564,0.718103
566,0.724812
568,0.731521
570,0.73823
572,0.74597
574,0.754579
576,0.763188
578,0.768523
580,0.765955
582,0.763387
584,0.76082
586,0.758252
588,0.746512
590,0.718311
592,0.688642
594,0.653884
596,0.617659
598,0.566846
600,0.515925
602,0.43132
604,0.390044
606,0.336965
608,0.282917
610,0.234998
612,0.192369
614,0.16081
616,0.139184
618,0.117198
620,0.0951791
622,0.0859119
624,0.0768035
626,0.0676952
628,0.0590667
630,0.0562969
632,0.0535271
634,0.0507572
636,0.0479874
638,0.0452176
640,0.0433947
642,0.0422059
644,0.0410172
646,0.0398284
648,0.0386396
650,0.0376464
652,0.0371037
654,0.036561
656,0.0360183
658,0.0354756
660,0.0349334
662,0.0344683
664,0.0340031
666,0.0335379
668,0.0330728
670,0.0326076
672,0.0323443
674,0.0321634
676,0.0319825
678,0.0318016
680,0.0316207
682,0.0314398
684,0.0312589
686,0.031078
688,0.0308971
690,0.0307162
692,0.0305201
694,0.03021
696,0.0298999
698,0.0295898
700,0.0292796
702,0.0289695
704,0.0289142
706,0.0289142
708,0.0289142
710,0.0289142
712,0.0289142
714,0.0289142
716,0.0289142
718,0.0289142
720,0.0289142
722,0.0289142
724,0.0289142
726,0.0289142
728,0.0289142
730,0.0289142
732,0.0289142
734,0.0289142
736,0.029083
738,0.0292639
740,0.0294448
742,0.0296257
744,0.0298066
746,0.0301191
748,0.0305068
750,0.0308944
752,0.031282
754,0.0316697
756,0.0319341
758,0.03196
760,0.0319858
762,0.0320117
764,0.0320375
766,0.0320862
768,0.0326289
770,0.0331716
772,0.0337143
774,0.034257
776,0.0347997
778,0.0349558
780,0.0349816
782,0.0350075
784,0.0350333
786,0.0350592
788,0.0351901
790,0.0354485
792,0.035707
794,0.0359654
796,0.0362238
798,0.0364541
799,0.0364928