File: conjugated_ECPs/uv_vis_automated/Adv. Optical Mater. 6, 1800594, 2018/metadata/ECP-cyan.csv
Wavelength (nm),Absorbance
320,0.318222
322,0.319473
324,0.320457
326,0.317956
328,0.315454
330,0.310286
332,0.302781
334,0.295276
336,0.286942
338,0.280571
340,0.276402
342,0.272233
344,0.270375
346,0.271625
348,0.272876
350,0.275485
352,0.278265
354,0.281044
356,0.283824
358,0.287214
360,0.291905
362,0.298133
364,0.30814
366,0.318146
368,0.332381
370,0.345714
372,0.358222
374,0.367788
376,0.377651
378,0.394328
380,0.40619
382,0.415571
384,0.429545
386,0.445111
388,0.451365
390,0.458095
392,0.470603
394,0.482968
396,0.492349
398,0.501706
400,0.509524
402,0.517341
404,0.522079
406,0.52677
408,0.527837
410,0.52873
412,0.529624
414,0.526815
416,0.518476
418,0.514165
420,0.510413
422,0.505278
424,0.49746
426,0.487222
428,0.471894
430,0.457302
432,0.437841
434,0.409714
436,0.389185
438,0.375048
440,0.36254
442,0.343508
444,0.330836
446,0.315937
448,0.28419
450,0.272222
452,0.265968
454,0.259714
456,0.251005
458,0.241063
460,0.237937
462,0.234698
464,0.228444
466,0.22219
468,0.217803
470,0.215302
472,0.2128
474,0.212098
476,0.211473
478,0.210848
480,0.210222
482,0.209597
484,0.209524
486,0.209524
488,0.209524
490,0.210556
492,0.213683
494,0.21681
496,0.220159
498,0.224067
500,0.227976
502,0.231885
504,0.235719
506,0.239293
508,0.242866
510,0.24644
512,0.25181
514,0.258063
516,0.262095
518,0.264875
520,0.267654
522,0.270434
524,0.274794
526,0.288735
528,0.294095
530,0.299456
532,0.30481
534,0.3095
536,0.31419
538,0.332667
540,0.336349
542,0.339476
544,0.342603
546,0.348603
548,0.354857
550,0.364815
552,0.373714
554,0.379968
556,0.386222
558,0.392476
560,0.400762
562,0.409517
564,0.420444
566,0.437122
568,0.450667
570,0.462603
572,0.47261
574,0.482616
576,0.490032
578,0.496286
580,0.50254
582,0.512825
584,0.525333
586,0.538802
588,0.552873
590,0.566032
592,0.57854
594,0.587587
596,0.593841
598,0.600286
600,0.619048
602,0.63781
604,0.656571
606,0.664722
608,0.67254
610,0.68623
612,0.700302
614,0.724317
616,0.740021
618,0.752972
620,0.763135
622,0.774361
624,0.787651
626,0.799246
628,0.807063
630,0.815608
632,0.826032
634,0.836455
636,0.84627
638,0.854087
640,0.862646
642,0.874111
644,0.885577
646,0.897452
648,0.911524
650,0.924603
652,0.930857
654,0.937513
656,0.947937
658,0.956993
660,0.965034
662,0.973075
664,0.981037
666,0.985206
668,0.989376
670,0.993545
672,0.996698
674,0.999825
676,1.00295
678,1.00608
680,1.00921
682,1.01233
684,1.01546
686,1.01316
688,1.01003
690,1.00578
692,1.00132
694,0.996848
696,0.99254
698,0.988631
700,0.984722
702,0.980813
704,0.97666
706,0.971657
708,0.966654
710,0.957365
712,0.946108
714,0.935127
716,0.925746
718,0.91673
720,0.910476
722,0.903503
724,0.88891
726,0.875492
728,0.863841
730,0.852897
732,0.841143
734,0.831778
736,0.822476
738,0.809968
740,0.79746
742,0.786333
744,0.775619
746,0.763111
748,0.748622
750,0.731179
752,0.714204
754,0.692222
756,0.66709
758,0.649693
760,0.626667
762,0.605757
764,0.589365
766,0.564825
768,0.533587
770,0.494762
772,0.464508
774,0.438175
776,0.415111
778,0.385566
780,0.364762
782,0.338455
784,0.320762
786,0.295079
788,0.265397
790,0.251499
792,0.237601
794,0.222662
796,0.207556
798,0.195048
799,0.188794