File: conjugated_ECPs/uv_vis_automated/Adv. Optical Mater. 6, 1800594, 2018/metadata/ECP-orange.txt
Wavelength (nm),Absorbance
320,0.263522
322,0.260463
324,0.257926
326,0.255397
328,0.253283
330,0.251168
332,0.249054
334,0.254832
336,0.259404
338,0.261216
340,0.263028
342,0.26484
344,0.269235
346,0.274309
348,0.279943
350,0.287554
352,0.295165
354,0.302982
356,0.31091
358,0.317897
360,0.324239
362,0.330611
364,0.338222
366,0.345833
368,0.354304
370,0.363818
372,0.37375
374,0.384321
376,0.399402
378,0.412641
380,0.425326
382,0.435573
384,0.445087
386,0.456859
388,0.470261
390,0.487174
392,0.50044
394,0.511539
396,0.52475
398,0.539633
400,0.557391
402,0.576092
404,0.594211
406,0.608708
408,0.62375
410,0.638424
412,0.651109
414,0.66906
416,0.684696
418,0.700592
420,0.717663
422,0.728234
424,0.740261
426,0.752946
428,0.76563
430,0.778505
432,0.793304
434,0.805788
436,0.816361
438,0.827461
440,0.83856
442,0.849659
444,0.860758
446,0.866483
448,0.871557
450,0.877038
452,0.88338
454,0.889443
456,0.894728
458,0.900014
460,0.904918
462,0.90809
464,0.910981
466,0.911887
468,0.912793
470,0.9137
472,0.912135
474,0.908329
476,0.904524
478,0.901928
480,0.899391
482,0.895883
484,0.890809
486,0.885735
488,0.87757
490,0.86869
492,0.860424
494,0.854082
496,0.846565
498,0.83388
500,0.82038
502,0.801353
504,0.781087
506,0.759761
508,0.734522
510,0.717609
512,0.701839
514,0.687342
516,0.674065
518,0.644147
520,0.627255
522,0.616156
524,0.598576
526,0.58013
528,0.563217
530,0.540109
532,0.514739
534,0.489298
536,0.469674
538,0.445821
540,0.407473
542,0.391152
544,0.365391
546,0.332236
548,0.310038
550,0.261957
552,0.225357
554,0.207223
556,0.192424
558,0.164359
560,0.132826
562,0.115913
564,0.099
566,0.0838837
568,0.0750043
570,0.066125
572,0.0533804
574,0.0396565
576,0.0345826
578,0.0295087
580,0.02375
582,0.0174076
584,0.0129043
586,0.0103674
588,0.00783043
590,0.0076087
592,0.0076087
594,0.0076087
596,0.0076087
598,0.0076087
600,0.0076087
602,0.0076087
604,0.0076087
606,0.0069868
608,0.00608075
610,0.00517469
612,0.00442702
614,0.00533307
616,0.00623913
618,0.00714519
620,0.0076087
622,0.0076087
624,0.0076087
626,0.0076087
628,0.00790625
630,0.00869905
632,0.00949185
634,0.0102846
636,0.0108696
638,0.0108696
640,0.0108696
642,0.0108696
644,0.0108696
646,0.0108696
648,0.0108696
650,0.0108696
652,0.0108696
654,0.0108696
656,0.0108696
658,0.0108696
660,0.0108696
662,0.0108696
664,0.0108696
666,0.0108696
668,0.0103864
670,0.00980978
672,0.0092332
674,0.00865662
676,0.00808004
678,0.0076087
680,0.0076087
682,0.0076087
684,0.0076087
686,0.0076087
688,0.0076087
690,0.0076087
692,0.0076087
694,0.00794022
696,0.00864493
698,0.00934964
700,0.0100543
702,0.0107591
704,0.00552174
706,0.00108696
708,0.00108696
710,0.00130823
712,0.00221429
714,0.00312034
716,0.0040264
718,0.00525725
720,0.00666667
722,0.00807609
724,0.00948551
726,0.0108696
728,0.0108696
730,0.0108696
732,0.0108696
734,0.0108696
736,0.0108696
738,0.0108696
740,0.0108696
742,0.0108696
744,0.0108696
746,0.0108696
748,0.0108696
750,0.0107337
752,0.010029
754,0.00932428
756,0.00861957
758,0.00791486
760,0.00800725
762,0.00871196
764,0.00941667
766,0.0101214
768,0.0108261
770,0.0108696
772,0.0108696
774,0.0108696
776,0.0108696
778,0.0108696
780,0.0107316
782,0.0102437
784,0.00975585
786,0.00926798
788,0.0087801
790,0.00829222
792,0.00780435
794,0.008875
796,0.0108696
798,0.0108696
799,0.0108696