File: conjugated_ECPs/uv_vis_automated/Adv. Optical Mater. 6, 1800594, 2018/metadata/ECP-yellow.csv
Wavelength (nm),Absorbance
320,0.163451
322,0.160882
324,0.158313
326,0.155744
328,0.153174
330,0.152409
332,0.152686
334,0.152962
336,0.153239
338,0.153515
340,0.154707
342,0.158774
344,0.16284
346,0.166907
348,0.170974
350,0.174603
352,0.178177
354,0.181751
356,0.185244
358,0.188577
360,0.19191
362,0.199635
364,0.207652
366,0.21363
368,0.218987
370,0.224477
372,0.232441
374,0.240404
376,0.248368
378,0.256366
380,0.267798
382,0.27923
384,0.290662
386,0.3026
388,0.31486
390,0.32712
392,0.340729
394,0.355322
396,0.369914
398,0.386914
400,0.404996
402,0.424132
404,0.443553
406,0.464027
408,0.48497
410,0.506636
412,0.527879
414,0.54898
416,0.57139
418,0.593873
420,0.617027
422,0.639046
424,0.659446
426,0.680645
428,0.702143
430,0.722231
432,0.741971
434,0.76017
436,0.77815
438,0.795945
440,0.813662
442,0.828567
444,0.843473
446,0.857008
448,0.86969
450,0.882371
452,0.894169
454,0.905634
456,0.915273
458,0.921026
460,0.926779
462,0.932532
464,0.938285
466,0.941609
468,0.938171
470,0.934734
472,0.931296
474,0.927859
476,0.920231
478,0.910724
480,0.901216
482,0.891579
484,0.880441
486,0.869303
488,0.857571
490,0.843312
492,0.829053
494,0.812274
496,0.794798
498,0.773879
500,0.750817
502,0.731649
504,0.706967
506,0.666238
508,0.630917
510,0.601583
512,0.562495
514,0.519377
516,0.471207
518,0.43287
520,0.394716
522,0.361748
524,0.322092
526,0.289857
528,0.258665
530,0.231028
532,0.20717
534,0.185907
536,0.16549
538,0.151481
540,0.137472
542,0.127467
544,0.119102
546,0.110737
548,0.102373
550,0.0980343
552,0.0943646
554,0.090695
556,0.0870253
558,0.0833556
560,0.0807302
562,0.078921
564,0.0771118
566,0.0753026
568,0.0734934
570,0.0721905
572,0.0710692
574,0.0699478
576,0.0688265
578,0.0677051
580,0.0669079
582,0.0661345
584,0.065361
586,0.0645875
588,0.063814
590,0.0631254
592,0.0624972
594,0.061869
596,0.0612408
598,0.0606254
600,0.0601131
602,0.0596009
604,0.0590887
606,0.0585765
608,0.0580681
610,0.0581887
612,0.0583093
614,0.0584299
616,0.0585505
618,0.0586711
620,0.0581414
622,0.0573459
624,0.0565503
626,0.0557548
628,0.0552226
630,0.0548895
632,0.0545565
634,0.0542235
636,0.0539683
638,0.0539683
640,0.0539683
642,0.0539683
644,0.0520531
646,0.0492375
648,0.0464219
650,0.0476713
652,0.0509793
654,0.0539236
656,0.0534602
658,0.0529968
660,0.0525334
662,0.05207
664,0.0520587
666,0.0520551
668,0.0520515
670,0.0520479
672,0.051986
674,0.0517276
676,0.0514691
678,0.0512107
680,0.0509523
682,0.0506939
684,0.0504694
686,0.0502475
688,0.0500255
690,0.0498036
692,0.0495816
694,0.0493471
696,0.0491036
698,0.0488602
700,0.0486168
702,0.0483734
704,0.048452
706,0.0491552
708,0.0498584
710,0.0505616
712,0.0513923
714,0.0522857
716,0.0531791
718,0.0539683
720,0.0539683
722,0.0539683
724,0.0540794
726,0.0556429
728,0.0571429
730,0.0571429
732,0.0571429
734,0.0571429
736,0.0571429
738,0.0571429
740,0.0571429
742,0.0571429
744,0.0571429
746,0.0566205
748,0.0560519
750,0.0554834
752,0.0549149
754,0.0543463
756,0.0539683
758,0.0539683
760,0.0539683
762,0.0546427
764,0.0554889
766,0.0563351
768,0.0571813
770,0.0577214
772,0.0580574
774,0.0583933
776,0.0587293
778,0.0590653
780,0.0593189
782,0.0593839
784,0.0594489
786,0.0595139
788,0.0595788
790,0.0596942
792,0.0599622
794,0.0602303
796,0.0604983
798,0.0604831
799,0.0604557