File: conjugated_ECPs/uv_vis_automated/J. Mat. Chem C, 3, 3211-3218, 2015/metadata/ACDOT-ProDOT.csv
Wavelength (nm),Absorbance
400,0.134109
401,0.135246
402,0.136382
403,0.137615
404,0.138914
405,0.140213
406,0.141511
407,0.14281
408,0.144109
409,0.146366
410,0.148639
411,0.150911
412,0.153184
413,0.155457
414,0.15773
415,0.15957
416,0.161085
417,0.1626
418,0.164115
419,0.165631
420,0.167146
421,0.168821
422,0.171346
423,0.173871
424,0.176397
425,0.178922
426,0.181491
427,0.184143
428,0.186795
429,0.189446
430,0.192098
431,0.194749
432,0.197401
433,0.200812
434,0.204275
435,0.207739
436,0.211202
437,0.214665
438,0.218316
439,0.222356
440,0.226397
441,0.230437
442,0.234478
443,0.23831
444,0.241947
445,0.245583
446,0.249219
447,0.254085
448,0.260146
449,0.266206
450,0.272267
451,0.27984
452,0.288931
453,0.295308
454,0.300659
455,0.304296
456,0.307932
457,0.311568
458,0.317188
459,0.327795
460,0.33668
461,0.344761
462,0.352563
463,0.359634
464,0.366704
465,0.371574
466,0.376119
467,0.380665
468,0.385211
469,0.390133
470,0.400739
471,0.410186
472,0.418267
473,0.426184
474,0.431235
475,0.436285
476,0.441336
477,0.446387
478,0.453907
479,0.469059
480,0.478866
481,0.485685
482,0.492503
483,0.499321
484,0.50614
485,0.512958
486,0.523757
487,0.541101
488,0.549182
489,0.557419
490,0.572571
491,0.588357
492,0.605024
493,0.617984
494,0.63032
495,0.643451
496,0.656583
497,0.665228
498,0.672804
499,0.68038
500,0.69251
501,0.707662
502,0.714749
503,0.72182
504,0.727842
505,0.733145
506,0.738448
507,0.74237
508,0.744102
509,0.745833
510,0.747565
511,0.749297
512,0.751028
513,0.753767
514,0.756798
515,0.759828
516,0.762858
517,0.766819
518,0.771062
519,0.775304
520,0.779547
521,0.79898
522,0.81016
523,0.820229
524,0.82932
525,0.84752
526,0.852421
527,0.856462
528,0.881134
529,0.896285
530,0.931417
531,0.957262
532,0.962565
533,0.967868
534,0.973004
535,0.977045
536,0.981085
537,0.985493
538,0.989527
539,0.98996
540,0.990393
541,0.990826
542,0.991259
543,0.991692
544,0.990737
545,0.988464
546,0.986191
547,0.983377
548,0.979336
549,0.975296
550,0.959109
551,0.948345
552,0.940769
553,0.930032
554,0.907636
555,0.888573
556,0.86736
557,0.853438
558,0.842194
559,0.824012
560,0.796356
561,0.78878
562,0.774785
563,0.764494
564,0.75904
565,0.753585
566,0.74813
567,0.744937
568,0.747968
569,0.750998
570,0.768877
571,0.776452
572,0.78749
573,0.79867
574,0.806899
575,0.81498
576,0.845377
577,0.854468
578,0.859715
579,0.864995
580,0.872571
581,0.880147
582,0.887595
583,0.891636
584,0.895676
585,0.908644
586,0.912747
587,0.913959
588,0.915171
589,0.916383
590,0.914109
591,0.911079
592,0.908049
593,0.905018
594,0.8707
595,0.877247
596,0.845279
597,0.837198
598,0.829077
599,0.810281
600,0.791498
601,0.734437
602,0.693154
603,0.639454
604,0.625818
605,0.581741
606,0.550162
607,0.528445
608,0.472745
609,0.444457
610,0.426275
611,0.291494
612,0.273312
613,0.251644
614,0.227401
615,0.209049
616,0.19366
617,0.183054
618,0.164328
619,0.146036
620,0.127854
621,0.111366
622,0.0985101
623,0.0863887
624,0.0765117
625,0.070754
626,0.0649964
627,0.0592387
628,0.0541077
629,0.0501682
630,0.0462287
631,0.0422893
632,0.0389474
633,0.0367828
634,0.0346183
635,0.0324537
636,0.0302892
637,0.0281246
638,0.0270418
639,0.0263684
640,0.025695
641,0.0250216
642,0.0243482
643,0.0236748
644,0.0230013
645,0.0226721
646,0.0226721
647,0.0226721
648,0.0226721
649,0.0226721
650,0.0226721
651,0.0226225
652,0.0221174
653,0.0216123
654,0.0211073
655,0.0206022
656,0.0200972
657,0.0195921
658,0.019087
659,0.0187849
660,0.0185094
661,0.0182339
662,0.0179584
663,0.0176829
664,0.0174074
665,0.0171319
666,0.0168565
667,0.0165992
668,0.0165992
669,0.0165992
670,0.0165992
671,0.0165992
672,0.0166291
673,0.0167456
674,0.0168622
675,0.0169787
676,0.0170953
677,0.0172118
678,0.0173284
679,0.017445
680,0.0175615
681,0.0176781
682,0.0177946
683,0.0180248
684,0.0182773
685,0.0185299
686,0.0187824
687,0.0190349
688,0.0192874
689,0.01954
690,0.0197925
691,0.020045
692,0.0201609
693,0.0197821
694,0.0194033
695,0.0190245
696,0.0186457
697,0.018267
698,0.0178882
699,0.0180011