File: conjugated_ECPs/uv_vis_automated/J. Mat. Chem C, 3, 3211-3218, 2015/metadata/ACDOT2-ProDOT.txt
Wavelength (nm),Absorbance
400,0.176923
401,0.179448
402,0.181974
403,0.184123
404,0.186017
405,0.187911
406,0.189805
407,0.191699
408,0.193593
409,0.195879
410,0.199919
411,0.20396
412,0.207215
413,0.210245
414,0.213275
415,0.218036
416,0.224097
417,0.227225
418,0.230255
419,0.233285
420,0.236316
421,0.241285
422,0.246336
423,0.250686
424,0.254474
425,0.258262
426,0.261785
427,0.264816
428,0.267846
429,0.271164
430,0.276215
431,0.281265
432,0.284826
433,0.287856
434,0.290887
435,0.293917
436,0.298274
437,0.303122
438,0.307971
439,0.312819
440,0.318543
441,0.324364
442,0.328405
443,0.332445
444,0.335765
445,0.338796
446,0.341826
447,0.344856
448,0.347887
449,0.360503
450,0.371179
451,0.374967
452,0.378755
453,0.382757
454,0.388818
455,0.394879
456,0.39885
457,0.401881
458,0.407067
459,0.417673
460,0.423806
461,0.427846
462,0.432445
463,0.438506
464,0.444567
465,0.453647
466,0.463171
467,0.472351
468,0.47668
469,0.481009
470,0.486382
471,0.494715
472,0.503049
473,0.511587
474,0.523709
475,0.540992
476,0.556538
477,0.564114
478,0.574623
479,0.586745
480,0.597895
481,0.608501
482,0.619107
483,0.627614
484,0.638978
485,0.650342
486,0.647765
487,0.661907
488,0.676049
489,0.68603
490,0.695121
491,0.705482
492,0.717603
493,0.729852
494,0.748168
495,0.755744
496,0.761012
497,0.7648
498,0.768588
499,0.772986
500,0.778289
501,0.783593
502,0.789045
503,0.795105
504,0.801166
505,0.808026
506,0.815097
507,0.821074
508,0.825317
509,0.829559
510,0.833802
511,0.837585
512,0.840615
513,0.843646
514,0.846937
515,0.851483
516,0.856028
517,0.860574
518,0.870974
519,0.883229
520,0.898381
521,0.913532
522,0.902674
523,0.922371
524,0.936202
525,0.945294
526,0.948628
527,0.951658
528,0.954688
529,0.957719
530,0.968988
531,0.973028
532,0.977069
533,0.981109
534,0.985016
535,0.988047
536,0.989474
537,0.989474
538,0.989474
539,0.989474
540,0.989474
541,0.989474
542,0.989474
543,0.989474
544,0.982381
545,0.973289
546,0.964198
547,0.950462
548,0.942562
549,0.935289
550,0.927227
551,0.914337
552,0.906761
553,0.892863
554,0.876615
555,0.865815
556,0.858239
557,0.849621
558,0.840658
559,0.833082
560,0.827692
561,0.824662
562,0.823912
563,0.823479
564,0.823046
565,0.822613
566,0.82218
567,0.829939
568,0.845215
569,0.843194
570,0.842389
571,0.856262
572,0.857777
573,0.859293
574,0.860808
575,0.862323
576,0.863838
577,0.865353
578,0.875277
579,0.874671
580,0.874065
581,0.873459
582,0.872711
583,0.868165
584,0.863619
585,0.859074
586,0.848243
587,0.837837
588,0.833291
589,0.826543
590,0.818462
591,0.809498
592,0.793587
593,0.758534
594,0.717336
595,0.69415
596,0.680304
597,0.672728
598,0.64202
599,0.6292
600,0.521862
601,0.491547
602,0.467304
603,0.409863
604,0.402287
605,0.367692
606,0.359611
607,0.296941
608,0.267045
609,0.251893
610,0.237925
611,0.214775
612,0.202274
613,0.189774
614,0.177274
615,0.135403
616,0.122675
617,0.114445
618,0.106364
619,0.0982834
620,0.0834008
621,0.0766667
622,0.0699325
623,0.0631984
624,0.05583
625,0.0490073
626,0.0464432
627,0.043879
628,0.0413149
629,0.0387507
630,0.0361865
631,0.0352412
632,0.0343995
633,0.0335577
634,0.0327159
635,0.0318742
636,0.0310324
637,0.0301906
638,0.0295198
639,0.0289138
640,0.0283077
641,0.0277016
642,0.0275304
643,0.0274871
644,0.0271083
645,0.0267295
646,0.0263507
647,0.0259719
648,0.0255931
649,0.0252143
650,0.0248355
651,0.0244567
652,0.0240779
653,0.0236991
654,0.0233203
655,0.0229415
656,0.0226721
657,0.0226721
658,0.0226721
659,0.0226721
660,0.0226721
661,0.0226721
662,0.0226721
663,0.0228932
664,0.0231457
665,0.0233983
666,0.0236508
667,0.0238616
668,0.0234828
669,0.023104
670,0.0227252
671,0.0229977
672,0.0233765
673,0.0237553
674,0.0241341
675,0.0245129
676,0.0248917
677,0.0251012
678,0.0251012
679,0.0251012
680,0.0251012
681,0.0251012
682,0.0251012
683,0.0251012
684,0.0251012
685,0.0251012
686,0.0251012
687,0.0251012
688,0.0251012
689,0.0251012
690,0.0247874
691,0.0242824
692,0.0237773
693,0.0232723
694,0.0227672
695,0.0226721
696,0.0226721
697,0.0226721
698,0.0226721
699,0.0226721