File: conjugated_ECPs/uv_vis_automated/J. Mat. Chem C, 3, 3211-3218, 2015/metadata/AcDOT2-EDOT2.txt
Wavelength (nm),Absorbance
360,0.137036
362,0.137601
364,0.138335
366,0.13983
368,0.141324
370,0.142818
372,0.144313
374,0.147246
376,0.151025
378,0.154805
380,0.158585
382,0.16205
384,0.164601
386,0.167151
388,0.169702
390,0.172419
392,0.17731
394,0.182201
396,0.187093
398,0.191984
400,0.196164
402,0.200039
404,0.203914
406,0.20779
408,0.212772
410,0.218157
412,0.223542
414,0.228927
416,0.234773
418,0.240875
420,0.246978
422,0.253341
424,0.260914
426,0.268486
428,0.276058
430,0.283837
432,0.291705
434,0.299573
436,0.307589
438,0.318559
440,0.329528
442,0.338667
444,0.347639
446,0.356645
448,0.368552
450,0.380459
452,0.392171
454,0.403501
456,0.41477
458,0.425731
460,0.436692
462,0.448635
464,0.46138
466,0.47481
468,0.489749
470,0.504571
472,0.517898
474,0.531226
476,0.547389
478,0.564112
480,0.577025
482,0.589968
484,0.604165
486,0.618758
488,0.634609
490,0.65071
492,0.667229
494,0.683139
496,0.697768
498,0.712474
500,0.728029
502,0.743584
504,0.758833
506,0.773524
508,0.785705
510,0.797887
512,0.812485
514,0.827457
516,0.839671
518,0.851497
520,0.863194
522,0.874796
524,0.886398
526,0.89639
528,0.906076
530,0.916032
532,0.927122
534,0.938212
536,0.947357
538,0.956484
540,0.965611
542,0.973056
544,0.978956
546,0.984856
548,0.990755
550,0.995343
552,0.996192
554,0.997041
556,0.997891
558,0.99874
560,0.996747
562,0.994633
564,0.992519
566,0.989501
568,0.985034
570,0.980567
572,0.9761
574,0.971694
576,0.970024
578,0.968354
580,0.966684
582,0.964553
584,0.96108
586,0.957607
588,0.953238
590,0.948511
592,0.943784
594,0.936566
596,0.926282
598,0.915676
600,0.901786
602,0.887326
604,0.872706
606,0.848397
608,0.832426
610,0.813015
612,0.789463
614,0.765449
616,0.738478
618,0.717208
620,0.682647
622,0.657983
624,0.632459
626,0.629634
628,0.596493
630,0.57421
632,0.562857
634,0.552246
636,0.541802
638,0.53157
640,0.521338
642,0.513743
644,0.50669
646,0.493833
648,0.476483
650,0.458776
652,0.444745
654,0.42925
656,0.40277
658,0.383341
660,0.359824
662,0.331593
664,0.301137
666,0.271935
668,0.24471
670,0.224897
672,0.213468
674,0.203472
676,0.191377
678,0.176522
680,0.156891
682,0.142244
684,0.133129
686,0.124013
688,0.116373
690,0.10962
692,0.102868
694,0.0963566
696,0.0902794
698,0.0842022
699,0.0811636