File: conjugated_ECPs/uv_vis_automated/J. Mat. Chem C, 3, 3211-3218, 2015/metadata/ACDOT-EDOT.txt
Wavelength (nm),Absorbance
400,0.177987
401,0.180088
402,0.182188
403,0.184288
404,0.186388
405,0.188515
406,0.191024
407,0.193534
408,0.196044
409,0.198553
410,0.201063
411,0.203572
412,0.206082
413,0.208591
414,0.211101
415,0.213801
416,0.216677
417,0.219553
418,0.222428
419,0.225304
420,0.22818
421,0.231055
422,0.233963
423,0.237385
424,0.240807
425,0.244229
426,0.247651
427,0.251073
428,0.254495
429,0.257917
430,0.261611
431,0.265428
432,0.269246
433,0.273064
434,0.276881
435,0.280699
436,0.284714
437,0.289093
438,0.293473
439,0.297852
440,0.302232
441,0.306612
442,0.311343
443,0.316185
444,0.321028
445,0.32587
446,0.330713
447,0.335714
448,0.34085
449,0.345986
450,0.351122
451,0.356258
452,0.361586
453,0.366997
454,0.372409
455,0.37782
456,0.383414
457,0.38935
458,0.395285
459,0.401221
460,0.407157
461,0.413436
462,0.420024
463,0.426612
464,0.433199
465,0.439787
466,0.446375
467,0.452963
468,0.460008
469,0.467281
470,0.474554
471,0.481827
472,0.4891
473,0.496373
474,0.503646
475,0.511
476,0.518656
477,0.526312
478,0.533967
479,0.541623
480,0.549227
481,0.556777
482,0.564327
483,0.571877
484,0.579523
485,0.587188
486,0.594853
487,0.602626
488,0.610454
489,0.618282
490,0.626111
491,0.634974
492,0.64835
493,0.661652
494,0.669733
495,0.677814
496,0.688972
497,0.702103
498,0.71317
499,0.7162
500,0.719231
501,0.722261
502,0.72756
503,0.732863
504,0.738166
505,0.756063
506,0.759275
507,0.764064
508,0.77164
509,0.787526
510,0.797773
511,0.807874
512,0.816227
513,0.823298
514,0.830194
515,0.836255
516,0.842316
517,0.848377
518,0.852974
519,0.857519
520,0.862065
521,0.86661
522,0.871314
523,0.876869
524,0.882425
525,0.887981
526,0.893536
527,0.898742
528,0.903287
529,0.907833
530,0.912272
531,0.91606
532,0.919848
533,0.923636
534,0.930679
535,0.937951
536,0.945224
537,0.952497
538,0.956154
539,0.959521
540,0.962888
541,0.966255
542,0.969622
543,0.972989
544,0.976356
545,0.982358
546,0.989429
547,0.99468
548,0.995817
549,0.996953
550,0.99809
551,0.999226
552,1.00036
553,1.0015
554,1.00123
555,1.0008
556,1.00037
557,0.999934
558,0.999501
559,0.99781
560,0.992927
561,0.988043
562,0.983159
563,0.978332
564,0.973674
565,0.969016
566,0.964358
567,0.9597
568,0.955043
569,0.949699
570,0.943999
571,0.938299
572,0.932599
573,0.926899
574,0.92159
575,0.916371
576,0.911152
577,0.906566
578,0.902323
579,0.898081
580,0.893838
581,0.890025
582,0.886455
583,0.882884
584,0.879314
585,0.875743
586,0.872587
587,0.869642
588,0.866697
589,0.8642
590,0.861974
591,0.859749
592,0.857523
593,0.855297
594,0.850306
595,0.844479
596,0.838652
597,0.831647
598,0.824145
599,0.816877
600,0.809933
601,0.802989
602,0.795825
603,0.786924
604,0.778022
605,0.769154
606,0.760514
607,0.751874
608,0.742963
609,0.733619
610,0.724275
611,0.714931
612,0.681807
613,0.67016
614,0.658512
615,0.630643
616,0.620397
617,0.610151
618,0.588682
619,0.561127
620,0.535719
621,0.520825
622,0.510279
623,0.499715
624,0.482013
625,0.46462
626,0.44774
627,0.431484
628,0.416817
629,0.404529
630,0.387124
631,0.360814
632,0.347514
633,0.334303
634,0.321508
635,0.308713
636,0.296392
637,0.284102
638,0.273122
639,0.262696
640,0.252395
641,0.243304
642,0.234213
643,0.225293
644,0.217734
645,0.210175
646,0.202616
647,0.195365
648,0.188213
649,0.181062
650,0.173933
651,0.16757
652,0.161206
653,0.154842
654,0.148664
655,0.142916
656,0.137167
657,0.131419
658,0.125833
659,0.120891
660,0.115949
661,0.111006
662,0.106064
663,0.101122
664,0.0974273
665,0.0937532
666,0.0900791
667,0.0864051
668,0.082731
669,0.0790569
670,0.0765539
671,0.0746882
672,0.0728224
673,0.0709566
674,0.0690908
675,0.0672251
676,0.0653593
677,0.0634935
678,0.0616278
679,0.059762
680,0.0578962
681,0.0560304
682,0.0541647
683,0.0522989
684,0.050565
685,0.0494098
686,0.0482547
687,0.0470995
688,0.0459444
689,0.0447892
690,0.0436341
691,0.0424789
692,0.0413238
693,0.0401686
694,0.0399084
695,0.0398822
696,0.0398559
697,0.0398297
698,0.0398034
699,0.0397772