File: conjugated_ECPs/uv_vis_automated/J. Mat. Chem C, 3, 3211-3218, 2015/metadata/AcDOT.csv
Wavelength (nm),Absorbance
400,0.578009
401,0.585301
402,0.592594
403,0.599887
404,0.607179
405,0.614472
406,0.62189
407,0.629365
408,0.63684
409,0.644314
410,0.651789
411,0.659264
412,0.666739
413,0.674204
414,0.681631
415,0.689059
416,0.696487
417,0.703914
418,0.711342
419,0.71877
420,0.725776
421,0.732378
422,0.73898
423,0.745583
424,0.752185
425,0.758787
426,0.765389
427,0.771991
428,0.778447
429,0.784568
430,0.79069
431,0.796811
432,0.802932
433,0.809053
434,0.815175
435,0.821296
436,0.827417
437,0.833014
438,0.838409
439,0.843805
440,0.8492
441,0.854596
442,0.859991
443,0.865387
444,0.870782
445,0.876178
446,0.881554
447,0.886136
448,0.890718
449,0.895299
450,0.899881
451,0.904463
452,0.909044
453,0.913626
454,0.918208
455,0.922789
456,0.927371
457,0.931953
458,0.936411
459,0.93954
460,0.942669
461,0.945798
462,0.948927
463,0.952056
464,0.955185
465,0.958314
466,0.961443
467,0.964572
468,0.967701
469,0.97083
470,0.973959
471,0.977088
472,0.980217
473,0.983346
474,0.985576
475,0.986545
476,0.987515
477,0.988485
478,0.989455
479,0.990424
480,0.991394
481,0.992364
482,0.993334
483,0.994303
484,0.995273
485,0.996243
486,0.997213
487,0.998183
488,0.999152
489,1.00012
490,1.00109
491,1.00206
492,1.00104
493,0.999756
494,0.998471
495,0.997185
496,0.9959
497,0.994615
498,0.99333
499,0.992045
500,0.99076
501,0.989475
502,0.98819
503,0.986905
504,0.985619
505,0.984334
506,0.983049
507,0.981764
508,0.980479
509,0.977109
510,0.972936
511,0.968764
512,0.964591
513,0.960419
514,0.956246
515,0.952073
516,0.947901
517,0.943728
518,0.939556
519,0.935383
520,0.931211
521,0.926975
522,0.921144
523,0.915312
524,0.909481
525,0.90365
526,0.897819
527,0.891988
528,0.886156
529,0.880325
530,0.874408
531,0.867557
532,0.860706
533,0.853856
534,0.847005
535,0.840154
536,0.833304
537,0.826453
538,0.819602
539,0.811831
540,0.80393
541,0.79603
542,0.788129
543,0.780229
544,0.772329
545,0.763271
546,0.75321
547,0.743149
548,0.733088
549,0.723027
550,0.712966
551,0.701414
552,0.689766
553,0.678118
554,0.66647
555,0.653791
556,0.639914
557,0.626038
558,0.612162
559,0.597618
560,0.58283
561,0.568042
562,0.553252
563,0.536793
564,0.520333
565,0.503881
566,0.487787
567,0.471694
568,0.455601
569,0.439285
570,0.422854
571,0.406423
572,0.39061
573,0.376228
574,0.361845
575,0.347462
576,0.333051
577,0.318617
578,0.304184
579,0.290426
580,0.279148
581,0.26787
582,0.256592
583,0.245314
584,0.235614
585,0.228669
586,0.221723
587,0.214778
588,0.207832
589,0.200887
590,0.193942
591,0.186996
592,0.181804
593,0.178165
594,0.174527
595,0.170889
596,0.16725
597,0.163612
598,0.159974
599,0.156335
600,0.152697
601,0.149059
602,0.14542
603,0.141782
604,0.138144
605,0.134505
606,0.131549
607,0.12984
608,0.12813
609,0.12642
610,0.124711
611,0.123001
612,0.121292
613,0.119582
614,0.117872
615,0.116163
616,0.114453
617,0.112744
618,0.111034
619,0.109324
620,0.107615
621,0.105905
622,0.104196
623,0.102891
624,0.101896
625,0.100902
626,0.0999074
627,0.0989129
628,0.0979185
629,0.096924
630,0.0959296
631,0.0949351
632,0.0939407
633,0.0929462
634,0.0919518
635,0.0909573
636,0.0899629
637,0.0889684
638,0.087974
639,0.0869795
640,0.0859948
641,0.0853012
642,0.0846076
643,0.083914
644,0.0832204
645,0.0825268
646,0.0818332
647,0.0811396
648,0.080446
649,0.0797524
650,0.0790588
651,0.0783652
652,0.0776716
653,0.0769781
654,0.0762845
655,0.0755909
656,0.0748973
657,0.0742037
658,0.0736622
659,0.0731431
660,0.072624
661,0.0721049
662,0.0715858
663,0.0710667
664,0.0705476
665,0.0700285
666,0.0695094
667,0.0689903
668,0.0684712
669,0.0679521
670,0.067433
671,0.0669139
672,0.0663948
673,0.0658757
674,0.0653567
675,0.0648376
676,0.0644581
677,0.0640837
678,0.0637093
679,0.0633349
680,0.0629605
681,0.0625861
682,0.0622118
683,0.0618374
684,0.061463
685,0.0610886
686,0.0607142
687,0.0603398
688,0.0599654
689,0.059591
690,0.0592167
691,0.0588423
692,0.0584878
693,0.0582256
694,0.0579634
695,0.0577012
696,0.057439
697,0.0571768
698,0.0569146
699,0.0566524