File: conjugated_ECPs/uv_vis_automated/J. Mat. Chem C, 3, 3211-3218, 2015/metadata/ProDOT2-EDOT.txt
Wavelength (nm),Absorbance
400,0.123801
402,0.125885
404,0.128137
406,0.130423
408,0.132708
410,0.134993
412,0.137719
414,0.140607
416,0.143495
418,0.146383
420,0.149476
422,0.152691
424,0.155905
426,0.159119
428,0.162558
430,0.166199
432,0.16984
434,0.173482
436,0.177362
438,0.181573
440,0.185783
442,0.189994
444,0.194566
446,0.199915
448,0.205264
450,0.210612
452,0.216208
454,0.222712
456,0.229217
458,0.235721
460,0.242567
462,0.250226
464,0.257884
466,0.265543
468,0.273522
470,0.281522
472,0.289523
474,0.29752
476,0.305517
478,0.313515
480,0.323245
482,0.334145
484,0.345045
486,0.357012
488,0.368995
490,0.381499
492,0.39404
494,0.407412
496,0.420897
498,0.434891
500,0.44899
502,0.461415
504,0.474686
506,0.490224
508,0.504347
510,0.517554
512,0.530492
514,0.543335
516,0.556831
518,0.570773
520,0.586148
522,0.602333
524,0.619268
526,0.637316
528,0.656351
530,0.676891
532,0.69852
534,0.719486
536,0.739647
538,0.759063
540,0.776521
542,0.792527
544,0.8044
546,0.816146
548,0.822162
550,0.828178
552,0.834194
554,0.836545
556,0.838253
558,0.83996
560,0.841668
562,0.846236
564,0.851774
566,0.857311
568,0.866737
570,0.879026
572,0.893361
574,0.908947
576,0.926026
578,0.942581
580,0.958561
582,0.9733
584,0.985977
586,0.989393
588,0.992808
590,0.996224
592,0.989088
594,0.979706
596,0.967182
598,0.943054
600,0.920715
602,0.881106
604,0.84696
606,0.820131
608,0.7839
610,0.755871
612,0.727141
614,0.704474
616,0.683266
618,0.663658
620,0.645048
622,0.631713
624,0.620288
626,0.615501
628,0.610714
630,0.605926
632,0.601139
634,0.597278
636,0.594144
638,0.591009
640,0.587875
642,0.580295
644,0.570248
646,0.559947
648,0.541875
650,0.519972
652,0.492996
654,0.465143
656,0.431001
658,0.405337
660,0.378146
662,0.348781
664,0.303721
666,0.269348
668,0.238682
670,0.21357
672,0.192628
674,0.174722
676,0.159147
678,0.143959
680,0.129451
682,0.116947
684,0.106465
686,0.095983
688,0.0890287
690,0.0825262
692,0.0760238
694,0.0701714
696,0.0655674
698,0.0609635
700,0.0563596
702,0.0522727
704,0.0498348
706,0.0473968
708,0.0449588
710,0.0425945
712,0.0405837
714,0.0385729
716,0.0365621
718,0.0345667
720,0.0330461
722,0.0315256
724,0.0300051
726,0.0284845
728,0.0279366
730,0.0275083
732,0.02708
734,0.0266517
736,0.026266
738,0.0258893
740,0.0255126
742,0.0251359
744,0.0248316
746,0.0245554
748,0.0242791
749,0.024141