File: conjugated_ECPs/uv_vis_automated/J. Mat. Chem C, 3, 3211-3218, 2015/metadata/ProDOT.csv
Wavelength (nm),Absorbance
400,0.119184
402,0.120289
404,0.121394
406,0.122499
408,0.124465
410,0.126744
412,0.129023
414,0.132087
416,0.135314
418,0.13854
420,0.141766
422,0.144992
424,0.147684
426,0.15021
428,0.152737
430,0.155263
432,0.159055
434,0.163257
436,0.16746
438,0.171662
440,0.175499
442,0.179044
444,0.183429
446,0.189622
448,0.195816
450,0.201123
452,0.206015
454,0.210907
456,0.215798
458,0.223222
460,0.231324
462,0.242526
464,0.252888
466,0.258001
468,0.263155
470,0.27478
472,0.282976
474,0.290269
476,0.298353
478,0.306456
480,0.314882
482,0.32339
484,0.33698
486,0.354693
488,0.365064
490,0.372809
492,0.384336
494,0.398152
496,0.417206
498,0.435996
500,0.454228
502,0.478655
504,0.503926
506,0.522061
508,0.54171
510,0.56051
512,0.573671
514,0.582299
516,0.588742
518,0.590474
520,0.592207
522,0.590381
524,0.587342
526,0.588588
528,0.593091
530,0.597594
532,0.609113
534,0.629441
536,0.691475
538,0.70581
540,0.759018
542,0.798271
544,0.825101
546,0.848607
548,0.889868
550,0.902022
552,0.911314
554,0.915572
556,0.908665
558,0.898625
560,0.887061
562,0.860904
564,0.830173
566,0.768003
568,0.71981
570,0.666383
572,0.63965
574,0.607702
576,0.599473
578,0.600775
580,0.602077
582,0.614137
584,0.634802
586,0.690511
588,0.750183
590,0.783575
592,0.81925
594,0.875307
596,0.929653
598,0.956386
600,0.966331
602,0.974605
604,0.979728
606,0.980277
608,0.980826
610,0.964076
612,0.931949
614,0.803056
616,0.695304
618,0.563557
620,0.470776
622,0.360518
624,0.282172
626,0.218218
628,0.17941
630,0.138266
632,0.121829
634,0.106614
636,0.0951768
638,0.0849419
640,0.074707
642,0.0689438
644,0.0656625
646,0.0623812
648,0.0589874
650,0.0555147
652,0.0521404
654,0.0507517
656,0.0493631
658,0.0481186
660,0.0473085
662,0.0464983
664,0.0456882
666,0.0450074
668,0.0443447
670,0.0436821
672,0.0430194
674,0.0423568
676,0.0417678
678,0.0412154
680,0.0409603
682,0.0410988
684,0.0411765
686,0.0411765
688,0.0411765
690,0.040342
692,0.0394131
694,0.0395491
696,0.0401085
698,0.0406678
700,0.0410681
702,0.0398734
704,0.0386787
706,0.037484
708,0.0367388
710,0.0373119
712,0.0378849
714,0.0384579
716,0.0390506
718,0.0398102
720,0.0405699
722,0.0407861
724,0.0388483
726,0.0369105
728,0.035776
730,0.0360196
732,0.0362633
734,0.0365069
736,0.0367506
738,0.0359117
740,0.0350061
742,0.0341006
744,0.033195
746,0.0335755
748,0.0339899
749,0.0341294