File: conjugated_ECPs/uv_vis_automated/J. Mat. Chem C, 3, 3211-3218, 2015/metadata/ProDOT-EDOT.csv
Wavelength (nm),Absorbance
400,0.189017
402,0.191426
404,0.193836
406,0.199114
408,0.204838
410,0.210562
412,0.214285
414,0.21783
416,0.221375
418,0.22492
420,0.228783
422,0.232893
424,0.237003
426,0.241912
428,0.247263
430,0.252615
432,0.257966
434,0.263318
436,0.26894
438,0.274568
440,0.280196
442,0.285824
444,0.29337
446,0.301777
448,0.310071
450,0.317628
452,0.325184
454,0.33274
456,0.341345
458,0.350119
460,0.358893
462,0.367792
464,0.377522
466,0.387252
468,0.397333
470,0.409756
472,0.422144
474,0.432497
476,0.44285
478,0.454984
480,0.468285
482,0.480645
484,0.491215
486,0.502821
488,0.519533
490,0.534641
492,0.550182
494,0.566652
496,0.584257
498,0.603641
500,0.615314
502,0.626974
504,0.640945
506,0.655823
508,0.673121
510,0.68864
512,0.702293
514,0.717536
516,0.733742
518,0.748116
520,0.76238
522,0.775319
524,0.787704
526,0.800607
528,0.813886
530,0.828264
532,0.843196
534,0.854113
536,0.864766
538,0.876291
540,0.889276
542,0.901181
544,0.911261
546,0.921321
548,0.930437
550,0.939553
552,0.948669
554,0.953463
556,0.958147
558,0.962831
560,0.967514
562,0.970831
564,0.972589
566,0.974347
568,0.976106
570,0.978012
572,0.980001
574,0.981989
576,0.983978
578,0.985967
580,0.987709
582,0.989245
584,0.990782
586,0.992318
588,0.993854
590,0.99539
592,0.996882
594,0.998374
596,0.999865
598,1.00136
600,0.996317
602,0.990611
604,0.984905
606,0.979199
608,0.97341
610,0.963619
612,0.953828
614,0.942193
616,0.926887
618,0.910982
620,0.893801
622,0.879601
624,0.863923
626,0.840659
628,0.82305
630,0.807835
632,0.79834
634,0.788844
636,0.779168
638,0.767013
640,0.754859
642,0.743235
644,0.732675
646,0.722116
648,0.709246
650,0.695952
652,0.682658
654,0.667991
656,0.653102
658,0.636045
660,0.61991
662,0.604695
664,0.584846
666,0.560685
668,0.53639
670,0.51487
672,0.4955
674,0.474785
676,0.444226
678,0.418264
680,0.396761
682,0.375587
684,0.353822
686,0.331442
688,0.313401
690,0.298562
692,0.283087
694,0.252386
696,0.237993
698,0.2236
700,0.213624
702,0.204393
704,0.194265
706,0.184136
708,0.176034
710,0.168364
712,0.160695
714,0.152879
716,0.144889
718,0.136899
720,0.129267
722,0.124903
724,0.12054
726,0.116177
728,0.111814
730,0.108301
732,0.104932
734,0.101564
736,0.0981947
738,0.0954643
740,0.0932253
742,0.0909863
744,0.0887474
746,0.0865084
748,0.0847203
749,0.0838897