File: conjugated_ECPs/uv_vis_automated/J. Mat. Chem C, 3, 3211-3218, 2015/metadata/ProDOT2-EDOT2.txt
Wavelength (nm),Absorbance
400,0.123702
401,0.124775
402,0.125847
403,0.12692
404,0.127992
405,0.129065
406,0.130137
407,0.13121
408,0.132282
409,0.133354
410,0.13429
411,0.135118
412,0.135947
413,0.136776
414,0.137605
415,0.138433
416,0.139262
417,0.140091
418,0.141537
419,0.143436
420,0.145335
421,0.147235
422,0.149134
423,0.151033
424,0.152139
425,0.153007
426,0.153875
427,0.154743
428,0.155611
429,0.156509
430,0.157421
431,0.158333
432,0.159244
433,0.160156
434,0.161067
435,0.161979
436,0.162934
437,0.163947
438,0.16496
439,0.165972
440,0.167032
441,0.16869
442,0.170347
443,0.172004
444,0.173662
445,0.175319
446,0.176977
447,0.178634
448,0.180298
449,0.182035
450,0.183771
451,0.185507
452,0.187244
453,0.188982
454,0.191109
455,0.193236
456,0.195363
457,0.19749
458,0.199617
459,0.201744
460,0.203871
461,0.206355
462,0.208959
463,0.211564
464,0.214168
465,0.216773
466,0.219665
467,0.222704
468,0.225743
469,0.228781
470,0.231954
471,0.235426
472,0.238899
473,0.242372
474,0.245845
475,0.250138
476,0.257228
477,0.264144
478,0.267689
479,0.271234
480,0.274779
481,0.278324
482,0.281518
483,0.284557
484,0.288118
485,0.292169
486,0.296221
487,0.300272
488,0.30455
489,0.310019
490,0.315489
491,0.320958
492,0.32675
493,0.332827
494,0.338126
495,0.341994
496,0.345861
497,0.349728
498,0.355014
499,0.362827
500,0.370641
501,0.377655
502,0.384492
503,0.391329
504,0.398165
505,0.405002
506,0.411831
507,0.417908
508,0.423985
509,0.430279
510,0.438382
511,0.446485
512,0.454588
513,0.462691
514,0.469272
515,0.475349
516,0.481426
517,0.486645
518,0.49171
519,0.496774
520,0.501838
521,0.506803
522,0.511665
523,0.516526
524,0.521388
525,0.527298
526,0.533375
527,0.539452
528,0.545529
529,0.551607
530,0.557684
531,0.564759
532,0.573875
533,0.582648
534,0.589484
535,0.596321
536,0.603471
537,0.611574
538,0.621004
539,0.642097
540,0.651213
541,0.659702
542,0.665019
543,0.670337
544,0.678235
545,0.693428
546,0.704932
547,0.715024
548,0.72414
549,0.733528
550,0.744164
551,0.760302
552,0.76486
553,0.769418
554,0.774224
555,0.781314
556,0.788404
557,0.793631
558,0.798695
559,0.803383
560,0.807941
561,0.812499
562,0.817057
563,0.820356
564,0.821659
565,0.822961
566,0.824263
567,0.825565
568,0.827
569,0.828736
570,0.830473
571,0.832209
572,0.833945
573,0.83552
574,0.836533
575,0.837546
576,0.838559
577,0.839572
578,0.840585
579,0.841597
580,0.846801
581,0.853892
582,0.859841
583,0.864703
584,0.869565
585,0.874426
586,0.881254
587,0.888344
588,0.895256
589,0.902092
590,0.908929
591,0.91759
592,0.928294
593,0.941968
594,0.949739
595,0.956829
596,0.962645
597,0.967963
598,0.97328
599,0.977236
600,0.980882
601,0.984529
602,0.988203
603,0.992001
604,0.9958
605,0.998423
606,0.998043
607,0.997663
608,0.997283
609,0.996903
610,0.996523
611,0.994884
612,0.991846
613,0.988807
614,0.985768
615,0.980165
616,0.974088
617,0.959915
618,0.952158
619,0.945068
620,0.932022
621,0.922906
622,0.91379
623,0.904675
624,0.893088
625,0.877895
626,0.869954
627,0.862358
628,0.828368
629,0.82229
630,0.816213
631,0.807456
632,0.789544
633,0.780428
634,0.7713125
635,0.761411
636,0.751074
637,0.744996
638,0.738919
639,0.732842
640,0.728088
641,0.72505
642,0.722011
643,0.718326
644,0.714072
645,0.709818
646,0.705564
647,0.701036
648,0.696478
649,0.69192
650,0.68812
651,0.684322
652,0.680452
653,0.675894
654,0.671336
655,0.666489
656,0.660412
657,0.654354
658,0.649796
659,0.645238
660,0.64068
661,0.636122
662,0.631564
663,0.625864
664,0.615735
665,0.605738
666,0.60042
667,0.595102
668,0.589191
669,0.5790625
670,0.568934
671,0.554017
672,0.541181
673,0.530763
674,0.520345
675,0.510588
676,0.50011
677,0.484917
678,0.47306
679,0.462728
680,0.448162
681,0.433182
682,0.421788
683,0.410393
684,0.3995
685,0.391397
686,0.383294
687,0.366801
688,0.351676
689,0.338039
690,0.324871
691,0.311704
692,0.291301
693,0.276397
694,0.26956
695,0.262723
696,0.256158
697,0.249828
698,0.243497
699,0.237167