File: conjugated_ECPs/uv_vis_automated/Polym. Chem., 2018, 9, 5262-5267/metadata/P1.csv
wavelength,absor
360,0.522174
362,0.533449
364,0.543831
366,0.555449
368,0.56898
370,0.579774
372,0.590803
374,0.602196
376,0.613588
378,0.627085
380,0.641404
382,0.65454
384,0.666623
386,0.682255
388,0.698029
390,0.712818
392,0.720346
394,0.717272
396,0.753352
398,0.771086
400,0.787563
402,0.802945
404,0.818491
406,0.835677
408,0.858611
410,0.870382
412,0.88229
414,0.894261
416,0.906672
418,0.921308
420,0.935549
422,0.945716
424,0.955883
426,0.964344
428,0.971185
430,0.978025
432,0.982737
434,0.985954
436,0.989172
438,0.992389
440,0.991648
442,0.990257
444,0.988866
446,0.987475
448,0.982456
450,0.975551
452,0.971187
454,0.96965
456,0.964519
458,0.951618
460,0.939361
462,0.927558
464,0.912995
466,0.89619
468,0.877276
470,0.860086
472,0.851336
474,0.841997
476,0.819751
478,0.802306
480,0.78671
482,0.77292
484,0.760224
486,0.748899
488,0.736541
490,0.722761
492,0.71313
494,0.71127
496,0.702185
498,0.684022
500,0.674214
502,0.664406
504,0.656662
506,0.649832
508,0.643001
510,0.636147
512,0.627616
514,0.621518
516,0.619066
518,0.616613
520,0.614161
522,0.611782
524,0.609478
526,0.607174
528,0.604871
530,0.60333
532,0.604589
534,0.605847
536,0.607105
538,0.609254
540,0.611874
542,0.614494
544,0.617113
546,0.619724
548,0.621253
550,0.622781
552,0.624309
554,0.627581
556,0.632823
558,0.638064
560,0.643306
562,0.648421
564,0.653172
566,0.657922
568,0.662673
570,0.666672
572,0.669768
574,0.672863
576,0.675959
578,0.67887
580,0.680818
582,0.682767
584,0.684715
586,0.686664
588,0.687289
590,0.687519
592,0.68775
594,0.688106
596,0.688693
598,0.68928
600,0.689866
602,0.689626
604,0.686131
606,0.682636
608,0.679141
610,0.675646
612,0.672039
614,0.667423
616,0.662806
618,0.65819
620,0.653562
622,0.646117
624,0.638671
626,0.631048
628,0.62065
630,0.610252
632,0.60409
634,0.602118
636,0.592599
638,0.575483
640,0.564291
642,0.553098
644,0.541589
646,0.530069
648,0.515488
650,0.500716
652,0.489239
654,0.478959
656,0.466104
658,0.449182
660,0.43313
662,0.418943
664,0.404745
666,0.39053
668,0.373575
670,0.355401
672,0.345312
674,0.334844
676,0.317291
678,0.30051
680,0.284547
682,0.268944
684,0.255091
686,0.242709
688,0.233423
690,0.224529
692,0.211862
694,0.186735
696,0.177317
698,0.167899
700,0.156949
702,0.146
704,0.135308
706,0.124683
708,0.113837
710,0.102833
712,0.0973087
714,0.0948306
716,0.0901379
718,0.0824696
720,0.0748014
722,0.0692818
724,0.0643775
726,0.0604925
728,0.0606423
730,0.060792
732,0.0609417
734,0.0610915
736,0.0526306
738,0.0413371
740,0.0400353
742,0.0387335
744,0.0374317
746,0.036849
748,0.0366801
750,0.0365112
752,0.0363423
754,0.0356916
756,0.0347022
758,0.0337129
760,0.0327235
762,0.0325676
764,0.0331226
766,0.0336776
768,0.0342326
770,0.0343733
772,0.0340864
774,0.0337995
776,0.0335126
778,0.033858
780,0.034555
782,0.035252
784,0.035949
786,0.0366524
788,0.0373745
790,0.0380967
792,0.0388188
794,0.0394647
796,0.0399221
798,0.0403794
799,0.0406081