File: conjugated_ECPs/uv_vis_automated/Polym. Chem., 2018, 9, 5262-5267/metadata/P2.csv
wavelength,absor
360,0.485802
362,0.494933
364,0.501417
366,0.507901
368,0.514385
370,0.521474
372,0.528711
374,0.536352
376,0.544066
378,0.55178
380,0.55944
382,0.567088
384,0.574737
386,0.58246
388,0.590302
390,0.598145
392,0.604567
394,0.610394
396,0.616489
398,0.627979
400,0.639469
402,0.649723
404,0.656918
406,0.664112
408,0.671307
410,0.681256
412,0.690041
414,0.696254
416,0.702468
418,0.709676
420,0.717602
422,0.725529
424,0.732227
426,0.735217
428,0.738208
430,0.741198
432,0.743939
434,0.746423
436,0.748907
438,0.751391
440,0.753875
442,0.756358
444,0.755982
446,0.755162
448,0.754343
450,0.753523
452,0.752567
454,0.751546
456,0.750524
458,0.749503
460,0.746032
462,0.741834
464,0.737635
466,0.733436
468,0.729351
470,0.72531
472,0.721269
474,0.717663
476,0.714402
478,0.711141
480,0.707879
482,0.704131
484,0.699531
486,0.69493
488,0.69033
490,0.685849
492,0.685177
494,0.684505
496,0.683832
498,0.683111
500,0.682257
502,0.681402
504,0.680548
506,0.679767
508,0.679994
510,0.680221
512,0.680448
514,0.682674
516,0.686754
518,0.690835
520,0.694915
522,0.69909
524,0.703917
526,0.708744
528,0.713572
530,0.718399
532,0.72404
534,0.729688
536,0.735336
538,0.745625
540,0.75597
542,0.766295
544,0.773874
546,0.781453
548,0.789032
550,0.802309
552,0.814456
554,0.820572
556,0.826688
558,0.839275
560,0.851927
562,0.862379
564,0.871507
566,0.880635
568,0.890131
570,0.899685
572,0.907868
574,0.914952
576,0.922035
578,0.931312
580,0.94084
582,0.950367
584,0.957051
586,0.962698
588,0.968345
590,0.973792
592,0.977595
594,0.981399
596,0.985202
598,0.987989
600,0.989116
602,0.990242
604,0.991369
606,0.992496
608,0.99093
610,0.989142
612,0.987355
614,0.984135
616,0.979339
618,0.974543
620,0.969747
622,0.963137
624,0.954327
626,0.945517
628,0.933899
630,0.921031
632,0.917419
634,0.916889
636,0.897827
638,0.878377
640,0.864479
642,0.849857
644,0.834984
646,0.816783
648,0.79513
650,0.770453
652,0.755829
654,0.741204
656,0.722317
658,0.70251
660,0.681958
662,0.660514
664,0.641332
666,0.61736
668,0.596727
670,0.568146
672,0.551097
674,0.544036
676,0.504169
678,0.48164
680,0.459225
682,0.434893
684,0.410857
686,0.388028
688,0.365424
690,0.344337
692,0.323303
694,0.302268
696,0.295309
698,0.258513
700,0.244892
702,0.235914
704,0.226936
706,0.217958
708,0.189789
710,0.157872
712,0.14804
714,0.150281
716,0.126437
718,0.108734
720,0.0981345
722,0.0877666
724,0.0777322
726,0.067712
728,0.058478
730,0.049244
732,0.0446839
734,0.0415873
736,0.0384907
738,0.0351204
740,0.0312953
742,0.0274702
744,0.0236452
746,0.0201433
748,0.0175296
750,0.0149159
752,0.0123022
754,0.0116809
756,0.0115054
758,0.0113298
760,0.0111543
762,0.0106509
764,0.00986768
766,0.0090845
768,0.00830132
770,0.00780838
772,0.00875854
774,0.00970871
776,0.0106589
778,0.0115081
780,0.0122895
782,0.0130708
784,0.0138522
786,0.0144065
788,0.014256
790,0.0141055
792,0.013955
794,0.0144933
796,0.0153645
798,0.0162357
799,0.0166713