File: conjugated_ECPs/uv_vis_automated/Nature Materials, 2008, 7, 795–799/metadata/P1.csv
Wavelength (nm),Absorbance
436,0.361963
437,0.374233
438,0.411043
439,0.411043
440,0.411043
441,0.417178
442,0.429448
443,0.441718
444,0.425066
445,0.439089
446,0.453111
447,0.467134
448,0.481157
449,0.49518
450,0.509202
451,0.518405
452,0.527607
453,0.533742
454,0.539877
455,0.546012
456,0.552147
457,0.552147
458,0.539877
459,0.539877
460,0.539877
461,0.552147
462,0.527607
463,0.546012
464,0.515337
465,0.527607
466,0.521472
467,0.509202
468,0.486196
469,0.46319
470,0.440184
471,0.417178
472,0.441718
473,0.423313
474,0.398773
475,0.380368
476,0.294479
477,0.331288
478,0.300613
479,0.276074
480,0.257669
481,0.233129
482,0.214724
483,0.196319
484,0.177914
485,0.165644
486,0.159509
487,0.128834
488,0.130368
489,0.131902
490,0.133436
491,0.134969
492,0.136503
493,0.138037
494,0.139571
495,0.141104
496,0.142638
497,0.144172
498,0.145706
499,0.147239
500,0.134969
501,0.147239
502,0.159509
503,0.147239
504,0.159509
505,0.171779
506,0.163599
507,0.173824
508,0.184049
509,0.190184
510,0.196319
511,0.182004
512,0.186094
513,0.190184
514,0.214724
515,0.220859
516,0.226994
517,0.233129
518,0.239264
519,0.245399
520,0.251534
521,0.233129
522,0.239264
523,0.245399
524,0.251534
525,0.257669
526,0.288344
527,0.294479
528,0.300613
529,0.306748
530,0.312883
531,0.309816
532,0.306748
533,0.312883
534,0.343558
535,0.349693
536,0.355828
537,0.365031
538,0.374233
539,0.380368
540,0.386503
541,0.374233
542,0.404908
543,0.386503
544,0.423313
545,0.404908
546,0.441718
547,0.447853
548,0.460123
549,0.466258
550,0.478528
551,0.460123
552,0.496933
553,0.478528
554,0.515337
555,0.527607
556,0.509202
557,0.546012
558,0.558282
559,0.570552
560,0.552147
561,0.564417
562,0.601227
563,0.613497
564,0.625767
565,0.638037
566,0.619632
567,0.662577
568,0.671779
569,0.680982
570,0.693252
571,0.705521
572,0.717791
573,0.730061
574,0.748466
575,0.754601
576,0.766871
577,0.779141
578,0.785276
579,0.773006
580,0.809816
581,0.797546
582,0.803681
583,0.815951
584,0.833129
585,0.850307
586,0.867485
587,0.884663
588,0.90184
589,0.91411
590,0.97546
591,0.97546
592,0.91411
593,0.95092
594,0.957055
595,0.96319
596,0.969325
597,0.97546
598,0.96319
599,0.969325
600,0.993865
601,0.996933
602,1
603,0.993865
604,0.98773
605,0.988674
606,0.989618
607,0.990562
608,0.991505
609,0.992449
610,0.993393
611,0.994337
612,0.995281
613,0.996225
614,0.997168
615,0.998112
616,0.999056
617,1
618,0.981595
619,0.993865
620,0.969325
621,0.98773
622,0.957055
623,0.95092
624,0.93865
625,0.957055
626,0.920245
627,0.93865
628,0.92638
629,0.91411
630,0.90184
631,0.883436
632,0.865031
633,0.846626
634,0.828221
635,0.803681
636,0.779141
637,0.760736
638,0.730061
639,0.705521
640,0.680982
641,0.650307
642,0.625767
643,0.588957
644,0.558282
645,0.533742
646,0.496933
647,0.472393
648,0.441718
649,0.411043
650,0.380368
651,0.355828
652,0.325153
653,0.300613
654,0.276074
655,0.251534
656,0.226994
657,0.208589
658,0.184049
659,0.165644
660,0.147239
661,0.134969
662,0.122699
663,0.09202454
664,0.0674847
665,0.0858896
666,0.0736196
667,0.0674847
668,0.0368098
669,0.0306748
670,0.0368098
671,0.0429448
672,0.0368098
673,0.0204499
674,0.0224949
675,0.0245399
676,0.0143149
677,0.0163599
678,0.0184049
679,0.007668712
680,0.009202454
681,0.0107362
682,0.0122699
683,0
684,0.006134969
685,0.006134969
686,0.006134969
687,0.006134969
688,0.006134969
689,0.006134969
690,0.006134969
691,0.006134969
692,0.006134969
693,0.006134969
694,0.006134969
695,0.006134969
696,0
697,0
698,0
699,0
700,0
701,0.006134969
702,0.006134969
703,0.006134969
704,0.006134969