File: conjugated_ECPs/uv_vis_automated/Nature Materials, 2008, 7, 795–799/metadata/P2.txt
Wavelength (nm)	Absorbance
435	0.382716
436	0.395062
437	0.401235
438	0.41358
439	0.425926
440	0.438272
441	0.450617
442	0.462963
443	0.475309
444	0.487654
445	0.5
446	0.512346
447	0.524691
448	0.537037
449	0.530864
450	0.567901
451	0.580247
452	0.592593
453	0.611111
454	0.623457
455	0.635802
456	0.648148
457	0.660494
458	0.67284
459	0.685185
460	0.691358
461	0.703704
462	0.709877
463	0.716049
464	0.722222
465	0.728395
466	0.722222
467	0.722994
468	0.723765
469	0.724537
470	0.725309
471	0.72608
472	0.726852
473	0.727623
474	0.728395
475	0.734568
476	0.709877
477	0.722222
478	0.709877
479	0.703704
480	0.676955
481	0.662551
482	0.648148
483	0.648148
484	0.635802
485	0.617284
486	0.598765
487	0.58642
488	0.567901
489	0.537037
490	0.530864
491	0.518519
492	0.5
493	0.487654
494	0.469136
495	0.450617
496	0.438272
497	0.425926
498	0.41358
499	0.401235
500	0.388889
501	0.376543
502	0.364198
503	0.358025
504	0.351852
505	0.339506
506	0.330247
507	0.333333
508	0.32716
509	0.32716
510	0.32716
511	0.32716
512	0.333333
513	0.339506
514	0.345679
515	0.351852
516	0.358025
517	0.364198
518	0.37037
519	0.382716
520	0.388889
521	0.401235
522	0.41358
523	0.419753
524	0.432099
525	0.419753
526	0.438272
527	0.45679
528	0.475309
529	0.484568
530	0.493827
531	0.5
532	0.518519
533	0.518519
534	0.549383
535	0.537037
536	0.555556
537	0.574074
538	0.592593
539	0.611111
540	0.62963
541	0.641975
542	0.654321
543	0.666667
544	0.679012
545	0.691358
546	0.703704
547	0.709877
548	0.728395
549	0.746914
550	0.753086
551	0.771605
552	0.783951
553	0.796296
554	0.808642
555	0.820988
556	0.833333
557	0.845679
558	0.858025
559	0.87037
560	0.882716
561	0.888889
562	0.901235
563	0.91358
564	0.919753
565	0.91358
566	0.938272
567	0.950617
568	0.95679
569	0.962963
570	0.969136
571	0.962963
572	0.969136
573	0.966049
574	0.969136
575	0.972222
576	0.975309
577	0.978395
578	0.981481
579	0.984568
580	0.987654
581	0.990741
582	0.993827
583	0.996914
584	1
585	1
586	1
587	1
588	0.981481
589	0.993827
590	0.968107
591	0.960905
592	0.953704
593	0.946502
594	0.9393
595	0.932099
596	0.944444
597	0.925926
598	0.91358
599	0.901235
600	0.888889
601	0.876543
602	0.864198
603	0.845679
604	0.833333
605	0.814815
606	0.796296
607	0.783951
608	0.765432
609	0.746914
610	0.740741
611	0.709877
612	0.685185
613	0.666667
614	0.648148
615	0.623457
616	0.604938
617	0.58642
618	0.561728
619	0.537037
620	0.518519
621	0.487654
622	0.469136
623	0.450617
624	0.432099
625	0.407407
626	0.382716
627	0.364198
628	0.345679
629	0.320988
630	0.302469
631	0.283951
632	0.265432
633	0.246914
634	0.228395
635	0.216049
636	0.197531
637	0.185185
638	0.166667
639	0.154321
640	0.141975
641	0.12963
642	0.117284
643	0.104938
644	0.0925926
645	0.0864198
646	0.0740741
647	0.0679012
648	0.0617284
649	0.0493827
650	0.0432099
651	0.037037
652	0.0308642
653	0.0246914
654	0.0246914
655	0.0185185
656	0.0123457
657	0.0123457
658	0.00617284
659	0.00617284
660	0