File: conjugated_ECPs/uv_vis_automated/Nature Materials, 2008, 7, 795–799/metadata/P3.csv
Wavelength (nm),Absorbance
437,0.634146
438,0.646341
439,0.652439
440,0.664634
441,0.676829
442,0.682927
443,0.695122
444,0.707317
445,0.719512
446,0.731707
447,0.737805
448,0.75
449,0.762195
450,0.77439
451,0.786585
452,0.79878
453,0.810976
454,0.823171
455,0.835366
456,0.847561
457,0.859756
458,0.871951
459,0.884146
460,0.896341
461,0.908537
462,0.914634
463,0.926829
464,0.932927
465,0.945122
466,0.95122
467,0.957317
468,0.969512
469,0.97561
470,0.97561
471,0.981707
472,0.987805
473,0.987805
474,0.987805
475,0.993902
476,0.993902
477,0.987805
478,0.987805
479,0.987805
480,0.981707
481,0.97561
482,0.969512
483,0.963415
484,0.957317
485,0.95122
486,0.939024
487,0.926829
488,0.914634
489,0.902439
490,0.890244
491,0.878049
492,0.865854
493,0.853659
494,0.835366
495,0.817073
496,0.804878
497,0.792683
498,0.780488
499,0.762195
500,0.75
501,0.737805
502,0.72561
503,0.713415
504,0.70122
505,0.689024
506,0.682927
507,0.670732
508,0.664634
509,0.652439
510,0.646341
511,0.640244
512,0.634146
513,0.628049
514,0.628049
515,0.628049
516,0.628049
517,0.628049
518,0.628049
519,0.628049
520,0.628049
521,0.634146
522,0.640244
523,0.646341
524,0.652439
525,0.658537
526,0.664634
527,0.676829
528,0.682927
529,0.695122
530,0.707317
531,0.713415
532,0.72561
533,0.737805
534,0.75
535,0.762195
536,0.77439
537,0.786585
538,0.792683
539,0.804878
540,0.817073
541,0.829268
542,0.841463
543,0.853659
544,0.859756
545,0.871951
546,0.884146
547,0.896341
548,0.908537
549,0.914634
550,0.920732
551,0.932927
552,0.939024
553,0.95122
554,0.957317
555,0.969512
556,0.97561
557,0.981707
558,0.987805
559,0.993902
560,0.993902
561,1
562,1
563,1
564,1
565,1
566,1
567,1
568,1
569,1
570,1
571,1
572,1
573,1
574,1
575,0.987805
576,0.987805
577,0.981707
578,0.97561
579,0.969512
580,0.963415
581,0.95122
582,0.939024
583,0.932927
584,0.920732
585,0.908537
586,0.896341
587,0.890244
588,0.865854
589,0.853659
590,0.841463
591,0.829268
592,0.810976
593,0.792683
594,0.77439
595,0.762195
596,0.743902
597,0.72561
598,0.707317
599,0.689024
600,0.670732
601,0.652439
602,0.634146
603,0.609756
604,0.597561
605,0.573171
606,0.554878
607,0.536585
608,0.518293
609,0.506098
610,0.481707
611,0.463415
612,0.439024
613,0.420732
614,0.402439
615,0.384146
616,0.365854
617,0.347561
618,0.329268
619,0.317073
620,0.29878
621,0.27439
622,0.262195
623,0.25
624,0.237805
625,0.219512
626,0.207317
627,0.195122
628,0.182927
629,0.170732
630,0.152439
631,0.146341
632,0.134146
633,0.121951
634,0.115854
635,0.103659
636,0.097561
637,0.0914634
638,0.0853659
639,0.0731707
640,0.0670732
641,0.06097561
642,0.054878
643,0.0487805
644,0.0487805
645,0.0426829
646,0.0365854
647,0.0304878
648,0.0304878
649,0.0304878
650,0.0243902
651,0.0243902
652,0.0182927
653,0.0182927
654,0.0121951
655,0.0121951
656,0.0121951
657,0.006097561
658,0.006097561
659,0.006097561
660,0.006097561
661,0.006097561
662,0.006097561
663,0.006097561
664,0.006097561
665,0.006097561
666,0
667,0
668,0
669,0
670,0
671,0
672,0
673,0
674,0