File: conjugated_ECPs/uv_vis_automated/Nature Materials, 2008, 7, 795–799/metadata/P4.csv
Wavelength (nm),Absorbance
436,0.22561
437,0.231707
438,0.231707
439,0.237805
440,0.243902
441,0.243902
442,0.256098
443,0.256098
444,0.262195
445,0.268293
446,0.270325
447,0.278455
448,0.286585
449,0.292683
450,0.29878
451,0.310976
452,0.323171
453,0.329268
454,0.335366
455,0.347561
456,0.353659
457,0.371951
458,0.390244
459,0.396341
460,0.396341
461,0.414634
462,0.420732
463,0.432927
464,0.445122
465,0.457317
466,0.469512
467,0.469512
468,0.487805
469,0.512195
470,0.530488
471,0.54878
472,0.560976
473,0.567073
474,0.585366
475,0.609756
476,0.621951
477,0.621951
478,0.643293
479,0.682927
480,0.676829
481,0.695122
482,0.695122
483,0.713415
484,0.743902
485,0.756098
486,0.768293
487,0.780488
488,0.780488
489,0.817073
490,0.853659
491,0.829268
492,0.871951
493,0.871951
494,0.871951
495,0.885163
496,0.898374
497,0.911585
498,0.924797
499,0.938008
500,0.95122
501,0.963415
502,0.97561
503,0.981707
504,0.993902
505,0.987805
506,1
507,1
508,1
509,1
510,1
511,1
512,1
513,1
514,1
515,0.981707
516,0.993902
517,0.987805
518,0.987805
519,0.966463
520,0.957317
521,0.939024
522,0.926829
523,0.914634
524,0.902439
525,0.890244
526,0.878049
527,0.847561
528,0.835366
529,0.823171
530,0.79878
531,0.756098
532,0.756098
533,0.75
534,0.707317
535,0.664634
536,0.658537
537,0.646341
538,0.615854
539,0.615854
540,0.560976
541,0.542683
542,0.52439
543,0.506098
544,0.481707
545,0.45122
546,0.417683
547,0.390244
548,0.384146
549,0.359756
550,0.341463
551,0.317073
552,0.292683
553,0.27439
554,0.25
555,0.219512
556,0.213415
557,0.189024
558,0.176829
559,0.152439
560,0.146341
561,0.134146
562,0.121951
563,0.103659
564,0.0914634
565,0.0731707
566,0.0670732
567,0.0670732
568,0.0670732
569,0.0487805
570,0.0426829
571,0.0365854
572,0.0304878
573,0.0243902
574,0.0182927
575,0.0182927
576,0.0121951
577,0.0121951
578,0.006097561
579,0.006097561
580,0.006097561
581,0.006097561
582,0
583,0