File: conjugated_ECPs/uv_vis_automated/Nature Materials, 2008, 7, 795–799/metadata/P5.txt
Wavelength (nm)	Absorbance
355	0.303687
357	0.31557
359	0.324657
361	0.341717
363	0.35365
365	0.370567
367	0.387223
369	0.402489
371	0.415306
373	0.427784
375	0.44518
377	0.449196
379	0.458023
381	0.474343
383	0.489449
385	0.491552
387	0.495084
389	0.518384
391	0.518479
393	0.537801
395	0.533933
397	0.539449
399	0.538916
401	0.530816
403	0.52682
405	0.509559
407	0.508377
409	0.491425
411	0.479749
413	0.464704
415	0.448673
417	0.425167
419	0.399769
421	0.378368
423	0.351134
425	0.328259
427	0.294293
429	0.281512
431	0.24589
433	0.22292
435	0.199469
437	0.183908
439	0.171998
441	0.160709
443	0.15046
445	0.14182
447	0.138206
449	0.131433
451	0.131137
453	0.131137
455	0.131137
457	0.131137
459	0.131354
461	0.131143
463	0.136967
465	0.139575
467	0.141869
469	0.148796
471	0.150547
473	0.156344
475	0.159096
477	0.16618
479	0.168896
481	0.178507
483	0.181282
485	0.18999
487	0.194277
489	0.201996
491	0.206772
493	0.214681
495	0.221654
497	0.224584
499	0.234896
501	0.242514
503	0.24819
505	0.255194
507	0.263142
509	0.272135
511	0.279521
513	0.291349
515	0.29614
517	0.306493
519	0.315133
521	0.322028
523	0.332289
525	0.342494
527	0.351237
529	0.361984
531	0.369873
533	0.382316
535	0.393165
537	0.402788
539	0.412003
541	0.423478
543	0.433923
545	0.445883
547	0.458159
549	0.469452
551	0.481652
553	0.497124
555	0.505694
557	0.523227
559	0.534067
561	0.545824
563	0.563886
565	0.573886
567	0.589168
569	0.601768
571	0.615775
573	0.63027
575	0.646914
577	0.658323
579	0.674522
581	0.688454
583	0.70317
585	0.720865
587	0.735356
589	0.747433
591	0.761299
593	0.780253
595	0.794095
597	0.80373
599	0.819968
601	0.837605
603	0.851062
605	0.863349
607	0.868315
609	0.887693
611	0.902457
613	0.912867
615	0.92176
617	0.933858
619	0.942266
621	0.950494
623	0.961619
625	0.969749
627	0.975524
629	0.97886
631	0.986388
633	0.991437
635	0.99373
637	0.998815
639	1.00159
641	1.00245
643	1.002
645	1.00295
647	1.00203
649	0.998743
651	0.995061
653	0.993299
655	0.987016
657	0.983455
659	0.972782
661	0.96762
663	0.954594
665	0.946106
667	0.933781
669	0.922708
671	0.907823
673	0.880834
675	0.865584
677	0.843396
679	0.821904
681	0.796467
683	0.768035
685	0.750059
687	0.720048
689	0.683667
691	0.651892
693	0.620578
695	0.590789
697	0.553514
699	0.539579
701	0.485447
703	0.457476
705	0.421952
707	0.392454
709	0.367462
711	0.330899
713	0.302539
715	0.280158
717	0.25699
719	0.237306
721	0.214093
723	0.194172
725	0.173742
727	0.159801
729	0.149766
731	0.131493
733	0.124757
735	0.110172
737	0.103989
739	0.094218
741	0.0872149
743	0.082419
745	0.0753442
747	0.06822175
749	0.0674414
751	0.0620806
753	0.0593108
755	0.0565869
757	0.0523751
759	0.0494404
761	0.0475129
763	0.0456753
765	0.04237842
767	0.0403539
769	0.0377885
771	0.0349979
773	0.0329262
775	0.0310886
777	0.0282376
779	0.0270438
781	0.0255759
783	0.02194182
785	0.0207389
787	0.0193464
789	0.01621777