File: conjugated_ECPs/uv_vis_automated/Nature Materials, 2008, 7, 795–799/metadata/P6.csv
Wavelength (nm),Absorbance
440,0.363636
441,0.350649
442,0.37013
443,0.363636
444,0.376623
445,0.38961
446,0.396104
447,0.402597
448,0.409091
449,0.422078
450,0.409091
451,0.415584
452,0.422078
453,0.430736
454,0.439394
455,0.448052
456,0.461039
457,0.474026
458,0.480519
459,0.480519
460,0.5
461,0.519481
462,0.525974
463,0.538961
464,0.545455
465,0.558442
466,0.564935
467,0.577922
468,0.590909
469,0.597403
470,0.61039
471,0.616883
472,0.62987
473,0.636364
474,0.649351
475,0.655844
476,0.668831
477,0.675325
478,0.681818
479,0.688312
480,0.694805
481,0.701299
482,0.688312
483,0.687013
484,0.685714
485,0.684416
486,0.683117
487,0.681818
488,0.680519
489,0.679221
490,0.677922
491,0.676623
492,0.675325
493,0.681818
494,0.675325
495,0.662338
496,0.662338
497,0.655844
498,0.642857
499,0.636364
500,0.623377
501,0.61039
502,0.603896
503,0.564935
504,0.564935
505,0.545455
506,0.532468
507,0.519481
508,0.5
509,0.480519
510,0.467532
511,0.454545
512,0.423701
513,0.412338
514,0.400974
515,0.38961
516,0.396104
517,0.38961
518,0.383117
519,0.383117
520,0.376623
521,0.376623
522,0.376623
523,0.383117
524,0.376623
525,0.376623
526,0.396104
527,0.402597
528,0.409091
529,0.415584
530,0.422078
531,0.435065
532,0.441558
533,0.448052
534,0.441558
535,0.467532
536,0.474026
537,0.487013
538,0.5
539,0.512987
540,0.519481
541,0.525974
542,0.538961
543,0.551948
544,0.558442
545,0.571429
546,0.584416
547,0.571429
548,0.603896
549,0.616883
550,0.62987
551,0.636364
552,0.649351
553,0.662338
554,0.675325
555,0.688312
556,0.694805
557,0.714286
558,0.720779
559,0.733766
560,0.746753
561,0.733766
562,0.766234
563,0.772727
564,0.785714
565,0.798701
566,0.811688
567,0.818182
568,0.831169
569,0.837662
570,0.850649
571,0.857143
572,0.87013
573,0.876623
574,0.87013
575,0.876623
576,0.886724
577,0.896825
578,0.906926
579,0.917027
580,0.927128
581,0.937229
582,0.94733
583,0.957431
584,0.967532
585,0.974026
586,0.980519
587,0.987013
588,0.993506
589,1
590,0.987013
591,0.987013
592,0.993506
593,0.992641
594,0.991775
595,0.990909
596,0.990043
597,0.989177
598,0.988312
599,0.987446
600,0.98658
601,0.985714
602,0.984848
603,0.983983
604,0.983117
605,0.982251
606,0.981385
607,0.980519
608,0.987013
609,0.974026
610,0.980519
611,0.974026
612,0.967532
613,0.961039
614,0.954545
615,0.941558
616,0.935065
617,0.922078
618,0.915584
619,0.902597
620,0.896104
621,0.883117
622,0.87013
623,0.857143
624,0.844156
625,0.831169
626,0.818182
627,0.805195
628,0.785714
629,0.772727
630,0.733766
631,0.733766
632,0.714286
633,0.707792
634,0.675325
635,0.655844
636,0.636364
637,0.61039
638,0.590909
639,0.564935
640,0.545455
641,0.5
642,0.487013
643,0.467532
644,0.441558
645,0.422078
646,0.396104
647,0.37013
648,0.344156
649,0.324675
650,0.298701
651,0.272727
652,0.253247
653,0.233766
654,0.214286
655,0.188312
656,0.175325
657,0.155844
658,0.136364
659,0.116883
660,0.103896
661,0.0909091
662,0.0779221
663,0.0649351
664,0.0519481
665,0.038961
666,0.0324675
667,0.0194805
668,0.012987
669,0