File: conjugated_ECPs/uv_vis_automated/Nature Materials, 2008, 7, 795–799/metadata/P8.csv
Wavelength (nm),Absorbance
435,0.0843373
436,0.0858434
437,0.0873494
438,0.0888554
439,0.0903614
440,0.0903614
441,0.0903614
442,0.0903614
443,0.0903614
444,0.0903614
445,0.0903614
446,0.0963855
447,0.0963855
448,0.0963855
449,0.0963855
450,0.10241
451,0.100402
452,0.0983936
453,0.0963855
454,0.108434
455,0.108434
456,0.108434
457,0.114458
458,0.114458
459,0.114458
460,0.120482
461,0.11747
462,0.126506
463,0.129518
464,0.13253
465,0.114458
466,0.126506
467,0.138554
468,0.13253
469,0.126506
470,0.13253
471,0.138554
472,0.144578
473,0.150602
474,0.156627
475,0.144578
476,0.162651
477,0.153614
478,0.156627
479,0.174699
480,0.165663
481,0.168675
482,0.174699
483,0.178715
484,0.182731
485,0.186747
486,0.216867
487,0.216867
488,0.222892
489,0.228916
490,0.216867
491,0.23494
492,0.253012
493,0.259036
494,0.26506
495,0.277108
496,0.283133
497,0.289157
498,0.301205
499,0.289157
500,0.319277
501,0.331325
502,0.343373
503,0.349398
504,0.361446
505,0.36747
506,0.379518
507,0.391566
508,0.39759
509,0.415663
510,0.427711
511,0.433735
512,0.427711
513,0.463855
514,0.475904
515,0.493976
516,0.506024
517,0.524096
518,0.536145
519,0.548193
520,0.566265
521,0.578313
522,0.596386
523,0.674699
524,0.626506
525,0.626506
526,0.656627
527,0.668675
528,0.680723
529,0.692771
530,0.704819
531,0.692771
532,0.73494
533,0.753012
534,0.76506
535,0.777108
536,0.795181
537,0.813253
538,0.831325
539,0.849398
540,0.86747
541,0.885542
542,0.903614
543,0.921687
544,0.939759
545,0.957831
546,0.96988
547,0.981928
548,0.963855
549,0.975904
550,1
551,1
552,1
553,1
554,1
555,0.993976
556,0.987952
557,0.957831
558,0.963855
559,0.957831
560,0.951807
561,0.939759
562,0.933735
563,0.921687
564,0.921687
565,0.933735
566,0.939759
567,0.927711
568,0.945783
569,0.951807
570,0.939759
571,0.945783
572,0.957831
573,0.957831
574,0.951807
575,0.915663
576,0.915663
577,0.921687
578,0.885542
579,0.873494
580,0.843373
581,0.813253
582,0.789157
583,0.771084
584,0.680723
585,0.60241
586,0.560241
587,0.5
588,0.445783
589,0.385542
590,0.325301
591,0.307229
592,0.240964
593,0.186747
594,0.150602
595,0.120482
596,0.105852
597,0.091222
598,0.0765921
599,0.0619621
600,0.0473322
601,0.0327022
602,0.0180723
603,0.0210843
604,0.0240964
605,0.0210843
606,0.0180723
607,0.0180723
608,0.0120482
609,0.0120482
610,0.0120482
611,0.0120482
612,0.0120482
613,0.0120482
614,0.009036145
615,0.006024096
616,0.006024096
617,0.003012048
618,0
619,0