File: conjugated_ECPs/uv_vis_automated/Polymer Chemistry, 11, 2173 – 2181, 2020/metadata/P(BAcDOT-DMP).txt
Wavelength (nm),Absorbance
360,0.104996
362,0.107972
364,0.111355
366,0.114606
368,0.116903
370,0.1192
372,0.121926
374,0.124668
376,0.127783
378,0.130989
380,0.134476
382,0.138117
384,0.142079
386,0.146373
388,0.150634
390,0.154824
392,0.159021
394,0.163248
396,0.167472
398,0.171577
400,0.175681
402,0.180705
404,0.18588
406,0.191205
408,0.196593
410,0.201854
412,0.207008
414,0.212327
416,0.217911
418,0.223842
420,0.230559
422,0.237206
424,0.243794
426,0.251265
428,0.260046
430,0.266468
432,0.271653
434,0.28468
436,0.29314
438,0.298067
440,0.311507
442,0.321516
444,0.326956
446,0.341163
448,0.351584
450,0.362093
452,0.37344
454,0.386171
456,0.399764
458,0.416163
460,0.427932
462,0.444261
464,0.458331
466,0.474351
468,0.490349
470,0.504449
472,0.519835
474,0.534571
476,0.549343
478,0.563338
480,0.580821
482,0.595181
484,0.611719
486,0.629883
488,0.651344
490,0.669885
492,0.688713
494,0.709656
496,0.728128
498,0.745183
500,0.766121
502,0.773877
504,0.794133
506,0.806119
508,0.819927
510,0.826894
512,0.833841
514,0.840219
516,0.846597
518,0.853343
520,0.860184
522,0.869371
524,0.879642
526,0.891531
528,0.907292
530,0.92406
532,0.937974
534,0.95034
536,0.964628
538,0.977968
540,0.987539
542,0.996605
544,0.99749
546,0.996894
548,0.990419
550,0.983182
552,0.975416
554,0.967538
556,0.95966
558,0.947732
560,0.933274
562,0.903692
564,0.890324
566,0.881758
568,0.875042
570,0.872808
572,0.870892
574,0.871025
576,0.882809
578,0.895111
580,0.907063
582,0.918844
584,0.931068
586,0.943942
588,0.947791
590,0.95164
592,0.95163
594,0.948089
596,0.940045
598,0.924387
600,0.905171
602,0.884041
604,0.86169
606,0.808332
608,0.751562
610,0.693024
612,0.612843
614,0.542348
616,0.483622
618,0.406605
620,0.350157
622,0.290509
624,0.233815
626,0.179778
628,0.139708
630,0.118848
632,0.103755
634,0.0899373
636,0.0761193
638,0.0667662
640,0.0596222
642,0.0553142
644,0.0516913
646,0.0489151
648,0.0465997
650,0.0441108
652,0.0414413
654,0.0391335
656,0.0375536
658,0.0362109
660,0.035993
662,0.0357684
664,0.0351419
666,0.0345153
668,0.0332812
670,0.0319469
672,0.0306017
674,0.0292533
676,0.0306003
678,0.0310548
680,0.0299561
682,0.0289474
684,0.0289474
686,0.0289474
688,0.0304561
690,0.0326535
692,0.0342105
694,0.0342105
696,0.0342105
698,0.0340493
700,0.0324013
702,0.0307533
704,0.0291053
706,0.0289474
708,0.0289474
710,0.0289474
712,0.0289474
714,0.0289474
716,0.0289474
718,0.0289474
720,0.0289474
722,0.0289474
724,0.0289474
726,0.0289474
728,0.0286818
730,0.0278705
732,0.0270593
734,0.0267143
736,0.0269509
738,0.0271875
740,0.0270922
742,0.0269833
744,0.0264808
746,0.0258816
748,0.0270836
750,0.0292787
752,0.0314738
754,0.0321622
756,0.0327748
758,0.0333874
760,0.0339999
762,0.0341746
764,0.034338
766,0.0319724
768,0.029041
770,0.0289474
772,0.0289474
774,0.0289474
776,0.0289474
778,0.0303103
779,0.0314916