File: conjugated_ECPs/uv_vis_automated/Polymer Chemistry, 11, 2173 – 2181, 2020/metadata/P(BAcDOT).txt
Wavelength (nm),Absorbance
360,0.254298
362,0.262134
364,0.270727
366,0.280477
368,0.290862
370,0.302297
372,0.314908
374,0.327772
376,0.340865
378,0.355079
380,0.370896
382,0.386616
384,0.403148
386,0.419752
388,0.439476
390,0.456471
392,0.475256
394,0.498335
396,0.515756
398,0.536164
400,0.558384
402,0.578584
404,0.600511
406,0.623054
408,0.643861
410,0.664285
412,0.685911
414,0.707566
416,0.727212
418,0.746062
420,0.763743
422,0.785225
424,0.802862
426,0.819354
428,0.836717
430,0.851748
432,0.866353
434,0.881456
436,0.894221
438,0.906037
440,0.918448
442,0.931549
444,0.940333
446,0.949654
448,0.959933
450,0.967148
452,0.97412
454,0.980252
456,0.986354
458,0.990543
460,0.994275
462,0.996026
464,0.996707
466,0.995796
468,0.993235
470,0.989412
472,0.983066
474,0.97582
476,0.967052
478,0.955206
480,0.941689
482,0.927892
484,0.91359
486,0.897824
488,0.881709
490,0.864548
492,0.84701
494,0.829783
496,0.810122
498,0.792904
500,0.772764
502,0.752405
504,0.735526
506,0.715854
508,0.697343
510,0.675229
512,0.658177
514,0.637726
516,0.616823
518,0.59474
520,0.575266
522,0.55479
524,0.535479
526,0.516452
528,0.496594
530,0.47697
532,0.458277
534,0.440018
536,0.420723
538,0.402671
540,0.384006
542,0.365224
544,0.345297
546,0.327234
548,0.307265
550,0.287088
552,0.266512
554,0.246713
556,0.226037
558,0.205201
560,0.185536
562,0.166323
564,0.147549
566,0.130128
568,0.114103
570,0.0977198
572,0.0842328
574,0.0714978
576,0.0615222
578,0.0527424
580,0.0453491
582,0.0383974
584,0.0329221
586,0.0275573
588,0.0236075
590,0.0196577
592,0.0169287
594,0.0143136
596,0.0122964
598,0.0104713
600,0.00923364
602,0.00838919
604,0.00754475
606,0.00670031
608,0.0060411
610,0.00585042
612,0.00552639
614,0.00427335
616,0.0030203
618,0.00284803
620,0.00271183
622,0.00268593
624,0.00268593
626,0.00268593
628,0.00268593
630,0.00268593
632,0.00268593
634,0.002411
636,0.0015938
638,0.00090796
640,0.000826239
642,0.000746218
644,0.000746218
646,0.000746218
648,0.000746218
650,0.000746218
652,0.000746218
654,0.000746218
656,0.000776037
658,0.000830517
660,0.000884997
662,0.000939477
664,0.00115805
666,0.00192078
668,0.00262916
670,0.0026564
672,0.00268365
674,0.00268593
676,0.00268593
678,0.00268593
680,0.00268593
682,0.00325837
684,0.00421178
686,0.00498433
688,0.00552914
690,0.00591103
692,0.00588379
694,0.00594993
696,0.00665817
698,0.00736642
700,0.00759947
702,0.00781739
704,0.0078585
706,0.0078585
708,0.00844596
710,0.00934488
712,0.00994674
714,0.0102464
716,0.0104632
718,0.0105177
720,0.0109044
722,0.0128043
724,0.0147042
726,0.0151631
728,0.015455
730,0.0155373
732,0.0166559
734,0.018441
736,0.020226
738,0.0210526
740,0.0210526
742,0.0210517
744,0.0210449
746,0.0210381
748,0.0210313
750,0.0210579
752,0.0214937
754,0.0219296
756,0.0222404
758,0.0225401
760,0.0227569
762,0.0229476
764,0.0230071
766,0.0229799
768,0.0230494
770,0.0232401
772,0.023462
774,0.0237616
776,0.0240822
778,0.0245453
779,0.0247769