File: conjugated_ECPs/uv_vis_automated/Polymer Chemistry, 11, 2173 – 2181, 2020/metadata/P(LAcDOT).csv
Wavelength (nm),Absorbance
360,0.0815789
362,0.0826882
364,0.0846658
366,0.0866434
368,0.0886211
370,0.0894737
372,0.0894737
374,0.0937456
376,0.0981404
378,0.1
380,0.1
382,0.1
384,0.102947
386,0.106714
388,0.110481
390,0.114868
392,0.119263
394,0.121704
396,0.122803
398,0.124173
400,0.126645
402,0.129117
404,0.13159
406,0.134415
408,0.137241
410,0.14051
412,0.145454
414,0.148984
416,0.151621
418,0.154439
420,0.157368
422,0.160298
424,0.163271
426,0.167979
428,0.172688
430,0.177829
432,0.184421
434,0.190179
436,0.195453
438,0.202265
440,0.209956
442,0.217382
444,0.223974
446,0.230335
448,0.235985
450,0.241635
452,0.247711
454,0.254303
456,0.262895
458,0.276993
460,0.293509
462,0.303447
464,0.316632
466,0.328355
468,0.345333
470,0.354123
472,0.366737
474,0.378118
476,0.384711
478,0.394276
480,0.403158
482,0.411605
484,0.424789
486,0.434589
488,0.443456
490,0.458838
492,0.483395
494,0.501882
496,0.519579
498,0.559838
500,0.596053
502,0.624059
504,0.645276
506,0.6568125
508,0.680013
510,0.68725
512,0.688568
514,0.689474
516,0.689474
518,0.687382
520,0.684211
522,0.684211
524,0.682691
526,0.683295
528,0.688568
530,0.729145
532,0.748211
534,0.764513
536,0.818175
538,0.835754
540,0.889868
542,0.916533
544,0.940632
546,0.957184
548,0.986013
550,0.989309
552,0.992605
554,0.988914
556,0.963737
558,0.936421
560,0.873158
562,0.806013
564,0.764579
566,0.737625
568,0.699316
570,0.674671
572,0.6515
574,0.642447
576,0.637825
578,0.640572
580,0.673658
582,0.688161
584,0.693912
586,0.718083
588,0.751079
590,0.780033
592,0.819447
594,0.845934
596,0.876037
598,0.879992
600,0.873684
602,0.849947
604,0.818211
606,0.714296
608,0.628632
610,0.575395
612,0.502
614,0.439013
616,0.382509
618,0.345947
620,0.283158
622,0.239559
624,0.203368
626,0.178263
628,0.154145
630,0.140493
632,0.12714
634,0.109855
636,0.0942632
638,0.0812664
640,0.0730263
642,0.0640592
644,0.0573487
646,0.0525811
648,0.0514825
650,0.0503838
652,0.05
654,0.05
656,0.05
658,0.05
660,0.0495113
662,0.0476278
664,0.0457444
666,0.0443536
668,0.0435296
670,0.0427056
672,0.0419263
674,0.0412671
676,0.0406079
678,0.0399487
680,0.0394737
682,0.0394737
684,0.0394737
686,0.0394737
688,0.0394737
690,0.0391155
692,0.038383
694,0.0376506
696,0.0369181
698,0.0368421
700,0.0368421
702,0.0368421
704,0.0368421
706,0.0368421
708,0.0368421
710,0.0368421
712,0.0368421
714,0.0368421
716,0.0348233
718,0.0319981
720,0.0291729
722,0.0289474
724,0.0292519
726,0.0301936
728,0.0311353
730,0.0315789
732,0.0315789
734,0.0315789
736,0.0315789
738,0.0315789
740,0.0315789
742,0.0315789
744,0.0315789
746,0.0315789
748,0.0314263
750,0.0309868
752,0.0305474
754,0.0301079
756,0.0296684
758,0.0292289
760,0.0289474
762,0.0289474
764,0.0289474
766,0.0289474
768,0.0289474
770,0.0289474
772,0.0289474
774,0.0289474
776,0.0289474
778,0.0289474
779,0.0289474