File: conjugated_ECPs/uv_vis_automated/Polymer Chemistry, 11, 2173 – 2181, 2020/metadata/P(LAcDOT-BAcDOT).csv
Wavelength (nm),Absorbance
360,0.140518
362,0.143804
364,0.147345
366,0.150922
368,0.154763
370,0.158604
372,0.162943
374,0.167302
376,0.171515
378,0.175694
380,0.180494
382,0.185631
384,0.190787
386,0.195963
388,0.201184
390,0.206496
392,0.211917
394,0.217855
396,0.2238
398,0.230167
400,0.236534
402,0.243578
404,0.250652
406,0.258146
408,0.265688
410,0.273211
412,0.280976
414,0.289157
416,0.297315
418,0.305501
420,0.314851
422,0.324271
424,0.333813
426,0.343845
428,0.35383
430,0.363816
432,0.374377
434,0.385697
436,0.397236
438,0.408801
440,0.42064
442,0.433733
444,0.446914
446,0.459639
448,0.474383
450,0.488128
452,0.501919
454,0.517267
456,0.533622
458,0.547512
460,0.561619
462,0.576772
464,0.589729
466,0.602875
468,0.618895
470,0.633029
472,0.646103
474,0.660346
476,0.675489
478,0.689128
480,0.705559
482,0.723856
484,0.739644
486,0.755026
488,0.771711
490,0.785278
492,0.798371
494,0.809949
496,0.819494
498,0.82904
500,0.837122
502,0.843224
504,0.849129
506,0.854496
508,0.860003
510,0.866658
512,0.874177
514,0.884348
516,0.895487
518,0.908069
520,0.922519
522,0.937655
524,0.951631
526,0.964119
528,0.975391
530,0.984047
532,0.990884
534,0.99418
536,0.996794
538,0.996338
540,0.988933
542,0.979882
544,0.968667
546,0.953949
548,0.936871
550,0.920045
552,0.904007
554,0.887253
556,0.880229
558,0.873206
560,0.874815
562,0.878436
564,0.893651
566,0.903096
568,0.915822
570,0.932112
572,0.945775
574,0.956461
576,0.966102
578,0.97321
580,0.977642
582,0.978362
584,0.974088
586,0.967025
588,0.947417
590,0.918644
592,0.887759
594,0.83375
596,0.77555
598,0.713449
600,0.638601
602,0.550224
604,0.477666
606,0.412271
608,0.354582
610,0.302037
612,0.260425
614,0.221552
616,0.190478
618,0.169135
620,0.152683
622,0.1381
624,0.125739
626,0.115365
628,0.106819
630,0.0991324
632,0.093467
634,0.0878016
636,0.0821363
638,0.0773499
640,0.0736954
642,0.0700409
644,0.06667
646,0.0635855
648,0.0606672
650,0.0581883
652,0.0557508
654,0.0536261
656,0.0515014
658,0.0498912
660,0.0478519
662,0.0453384
664,0.042825
666,0.0403115
668,0.0394737
670,0.0394737
672,0.0394737
674,0.0391272
676,0.0383947
678,0.0376623
680,0.0369298
682,0.0361974
684,0.0354649
686,0.0347325
688,0.0335789
690,0.0313816
692,0.0291842
694,0.0260706
696,0.0233612
698,0.0236609
700,0.0239605
702,0.0232102
704,0.0224475
706,0.0215993
708,0.020744
710,0.0200377
712,0.0193314
714,0.01881
716,0.0186837
718,0.0185574
720,0.0184311
722,0.0184211
724,0.0184211
726,0.0184211
728,0.0184211
730,0.0184211
732,0.0184211
734,0.0184211
736,0.0184211
738,0.0184211
740,0.0184211
742,0.0184211
744,0.0184211
746,0.0184211
748,0.0184211
750,0.0184211
752,0.0184211
754,0.0184211
756,0.0184211
758,0.0184211
760,0.0184211
762,0.0184211
764,0.0184211
766,0.0184211
768,0.0184211
770,0.0184211
772,0.0184211
774,0.0184211
776,0.0184211
778,0.0184211
779,0.0184211