File: conjugated_ECPs/uv_vis_automated/Polymer Chemistry, 11, 2173 – 2181, 2020/metadata/P(LAcDOT-DMP).csv
Wavelength (nm),Absorbance
360,0.0958553
362,0.1
364,0.1
366,0.1
368,0.1
370,0.103829
372,0.107784
374,0.110031
376,0.112228
378,0.113158
380,0.116365
382,0.120485
384,0.124605
386,0.127858
388,0.130495
390,0.134906
392,0.140556
394,0.146207
396,0.149114
398,0.151311
400,0.153509
402,0.156371
404,0.161864
406,0.167357
408,0.173737
410,0.179776
412,0.183732
414,0.18825
416,0.194842
418,0.201434
420,0.208004
422,0.213498
424,0.218991
426,0.22723
428,0.233487
430,0.23898
432,0.246368
434,0.254171
436,0.261474
438,0.276649
440,0.289649
442,0.294044
444,0.307013
446,0.314776
448,0.321368
450,0.331168
452,0.342961
454,0.357352
456,0.365592
458,0.375636
460,0.387632
462,0.405045
464,0.414274
466,0.425719
468,0.442851
470,0.453838
472,0.471842
474,0.482829
476,0.493272
478,0.508654
480,0.524605
482,0.536141
484,0.553737
486,0.566921
488,0.587614
490,0.596404
492,0.617605
494,0.631294
496,0.646632
498,0.663346
500,0.680921
502,0.697398
504,0.713495
506,0.731852
508,0.74998
510,0.768498
512,0.786053
514,0.8015
516,0.814684
518,0.824245
520,0.833474
522,0.839602
524,0.845281
526,0.849675
528,0.85407
530,0.857664
532,0.861147
534,0.865855
536,0.870564
538,0.876861
540,0.886278
542,0.902955
544,0.918853
546,0.936333
548,0.951616
550,0.962664
552,0.972553
554,0.982441
556,0.989586
558,0.99453
560,0.994737
562,0.994737
564,0.991026
566,0.980822
568,0.967145
570,0.955609
572,0.939719
574,0.912237
576,0.895544
578,0.869072
580,0.851711
582,0.833191
584,0.821193
586,0.810711
588,0.797526
590,0.794737
592,0.794737
594,0.802572
596,0.825618
598,0.835507
600,0.843421
602,0.850009
604,0.854404
606,0.862333
608,0.863389
610,0.859434
612,0.851855
614,0.843306
616,0.833289
618,0.815345
620,0.786645
622,0.729757
624,0.699947
626,0.633526
628,0.587987
630,0.554276
632,0.481158
634,0.447987
636,0.410974
638,0.374125
640,0.343158
642,0.301759
644,0.264053
646,0.243053
648,0.221921
650,0.186184
652,0.174243
654,0.166003
656,0.143737
658,0.131007
660,0.116842
662,0.107324
664,0.0980947
666,0.089148
668,0.0842039
670,0.0790022
672,0.0735088
674,0.0679342
676,0.0613421
678,0.0549553
680,0.051
682,0.0462895
684,0.0409803
686,0.0392312
688,0.036406
690,0.0335808
692,0.0310301
694,0.0291466
696,0.0272632
698,0.0252237
700,0.0230263
702,0.0208289
704,0.0186316
706,0.0158665
708,0.0130414
710,0.0105263
712,0.0105263
714,0.0105263
716,0.0105263
718,0.0105263
720,0.0102632
722,0.00943914
724,0.00861513
726,0.00789474
728,0.00789474
730,0.00789474
732,0.00789474
734,0.00738268
736,0.00683333
738,0.00628399
740,0.00573465
742,0.00518531
744,0.00463596
746,0.00408662
748,0.00353728
750,0.00298794
752,0.00288889
754,0.00362135
756,0.0043538
758,0.00508626
760,0.00526316
762,0.00526316
764,0.00526316
766,0.00526316
768,0.00526316
770,0.00477227
772,0.00426518
774,0.0037581
776,0.00325101
778,0.00274393
779,0.00263158