File: conjugated_ECPs/uv_vis_automated/Adv. Mater.2010,22,724–728/metadata/P1.csv
Wavelength (nm),Absorbance
360,0.365076
362,0.368211
364,0.371347
366,0.373896
368,0.376009
370,0.378122
372,0.380235
374,0.382348
376,0.386488
378,0.394393
380,0.402297
382,0.410201
384,0.418105
386,0.425824
388,0.433444
390,0.441064
392,0.453726
394,0.471138
396,0.480094
398,0.48475
400,0.489407
402,0.494063
404,0.504047
406,0.514399
408,0.524751
410,0.538277
412,0.555071
414,0.570167
416,0.582187
418,0.594208
420,0.601195
422,0.608086
424,0.615188
426,0.622876
428,0.630564
430,0.638252
432,0.664368
434,0.67384
436,0.680118
438,0.686397
440,0.693271
442,0.70019
444,0.707109
446,0.713639
448,0.719789
450,0.72594
452,0.731877
454,0.735465
456,0.739053
458,0.74264
460,0.746228
462,0.745795
464,0.743489
466,0.741182
468,0.738776
470,0.736086
472,0.733395
474,0.729479
476,0.723021
478,0.716563
480,0.712947
482,0.709718
484,0.699697
486,0.688243
488,0.685553
490,0.682862
492,0.676739
494,0.66749
496,0.65824
498,0.648373
500,0.638358
502,0.628342
504,0.620221
506,0.612187
508,0.604153
510,0.596119
512,0.594474
514,0.593384
516,0.592295
518,0.591205
520,0.590115
522,0.593712
524,0.59935
526,0.604987
528,0.610625
530,0.618193
532,0.628394
534,0.638595
536,0.648936
538,0.659552
540,0.670169
542,0.681905
544,0.694068
546,0.706569
548,0.7197
550,0.732831
552,0.745122
554,0.757392
556,0.769597
558,0.78176
560,0.794069
562,0.806877
564,0.819685
566,0.832402
568,0.845102
570,0.857081
572,0.868275
574,0.879442
576,0.890385
578,0.901328
580,0.911623
582,0.921253
584,0.930883
586,0.939715
588,0.947382
590,0.955048
592,0.962715
594,0.968691
596,0.973572
598,0.978453
600,0.983335
602,0.988216
604,0.989145
606,0.989422
608,0.989699
610,0.989976
612,0.990254
614,0.989507
616,0.988173
618,0.986839
620,0.985504
622,0.98417
624,0.981461
626,0.971451
628,0.961441
630,0.95143
632,0.941762
634,0.93231
636,0.922857
638,0.911491
640,0.898402
642,0.885312
644,0.872222
646,0.857522
648,0.842218
650,0.826497
652,0.810689
654,0.793378
656,0.775736
658,0.757498
660,0.736744
662,0.714799
664,0.691853
666,0.672023
668,0.650899
670,0.628388
672,0.603573
674,0.578973
676,0.554584
678,0.5305
680,0.504523
682,0.481101
684,0.458942
686,0.434127
688,0.409669
690,0.3854
692,0.360884
694,0.337485
696,0.315331
698,0.295
700,0.27467
702,0.254198
704,0.233629
706,0.214248
708,0.199614
710,0.184408
712,0.168298
714,0.155741
716,0.144158
718,0.134408
720,0.125395
722,0.115977
724,0.106114
726,0.093557
728,0.0858421
730,0.0804605
732,0.0750789
734,0.0682786
736,0.0638492
738,0.0606216
740,0.0573939
742,0.053159
744,0.0469675
746,0.0427877
748,0.0397913
750,0.0367949
752,0.0337986
754,0.0308022
756,0.02811005
758,0.0256682
760,0.0232264
762,0.0207845
764,0.0183427
766,0.0162409
768,0.0156605
770,0.0150801
772,0.0144997
774,0.0139193
776,0.0133389
778,0.0126433
780,0.0119428
782,0.0112423
784,0.0105418
786,0.009841277
788,0.009208958
790,0.008601121
792,0.007993284
794,0.007385447
796,0.006777611
798,0.005863138
799,0.005259955