File: conjugated_ECPs/uv_vis_automated/Adv. Mater.2010,22,724–728/metadata/P2.txt
Wavelength (nm)	Absorbance
360	0.335066
362	0.339102
364	0.343138
366	0.347358
368	0.351698
370	0.356038
372	0.365316
374	0.376471
376	0.388458
378	0.401988
380	0.409067
382	0.414085
384	0.419103
386	0.425824
388	0.433444
390	0.441064
392	0.453726
394	0.471138
396	0.480094
398	0.48475
400	0.489407
402	0.494063
404	0.507099
406	0.517691
408	0.52586
410	0.538306
412	0.55516
414	0.570345
416	0.582507
418	0.59467
420	0.620599
422	0.63706
424	0.645777
426	0.654495
428	0.661947
430	0.66656
432	0.671173
434	0.675786
436	0.674411
438	0.672258
440	0.670105
442	0.667953
444	0.6658
446	0.659542
448	0.653263
450	0.646776
452	0.637089
454	0.627403
456	0.6144
458	0.599332
460	0.582237
462	0.558655
464	0.548968
466	0.539282
468	0.520737
470	0.494671
472	0.47725
474	0.465141
476	0.435737
478	0.424974
480	0.414211
482	0.403447
484	0.390197
486	0.376743
488	0.370063
490	0.363605
492	0.360577
494	0.360674
496	0.360771
498	0.3608685
500	0.361749
502	0.367304
504	0.37286
506	0.378415
508	0.383971
510	0.390512
512	0.398563
514	0.406614
516	0.414805
518	0.424834
520	0.434863
522	0.445092
524	0.4555566
526	0.466021
528	0.47685
530	0.487912
532	0.498974
534	0.511
536	0.523328
538	0.53568
540	0.5481657
542	0.560651
544	0.572858
546	0.584985
548	0.597659
550	0.611153
552	0.624636
554	0.63809
556	0.651373
558	0.663482
560	0.67559
562	0.689652
564	0.703734
566	0.716638
568	0.729338
570	0.741987
572	0.75458
574	0.767173
576	0.779766
578	0.792359
580	0.805275
582	0.81831
584	0.830742
586	0.842761
588	0.854598
590	0.865785
592	0.876972
594	0.887991
596	0.898901
598	0.909811
600	0.919012
602	0.928206
604	0.937217
606	0.9451609
608	0.953105
610	0.961049
612	0.970475
614	0.980221
616	0.988154
618	0.989286
620	0.990417
622	0.991549
624	0.992105
626	0.992105
628	0.992105
630	0.992105
632	0.991573
634	0.990681
636	0.989788
638	0.986396
640	0.98185
642	0.977305
644	0.972759
646	0.96811
648	0.956669
650	0.945227
652	0.933786
654	0.948699
656	0.934871
658	0.921042
660	0.907812
662	0.895613
664	0.882778
666	0.86781
668	0.852263
670	0.835541
672	0.817806
674	0.798444
676	0.775598
678	0.753244
680	0.731243
682	0.707479
684	0.681656
686	0.653785
688	0.624494
690	0.595837
692	0.56726
694	0.536859
696	0.502453
698	0.47379
700	0.444772
702	0.416313
704	0.387271
706	0.356953
708	0.328251
710	0.302707
712	0.279113
714	0.256789
716	0.234877
718	0.215093
720	0.197619
722	0.17327
724	0.155658
726	0.13985
728	0.125603
730	0.111551
732	0.0943276
734	0.0760605
736	0.063141
738	0.0590133
740	0.0548855
742	0.0507577
744	0.0466299
746	0.0426417
748	0.0394156
750	0.0361895
752	0.03296346
754	0.0297374
756	0.026548
758	0.0247187
760	0.0228894
762	0.02106014
764	0.0192309
766	0.0174016
768	0.0158477
770	0.0152006
772	0.0145535
774	0.0139063
776	0.0132592
778	0.0126119
780	0.0119425
782	0.0112731
784	0.0106038
786	0.009934426
788	0.009265064
790	0.0086126
792	0.007964735
794	0.00731687
796	0.006669005
798	0.00602114
799	0.005645888