File: conjugated_ECPs/uv_vis_automated/Adv. Mater.2010,22,724–728/metadata/P3.csv
Wavelength (nm),Absorbance
360,0.320658
362,0.332391
364,0.338541
366,0.344692
368,0.354421
370,0.396754
372,0.4038
374,0.410258
376,0.416716
378,0.427332
380,0.439441
382,0.449451
384,0.458868
386,0.469395
388,0.478877
390,0.486053
392,0.494026
394,0.502099
396,0.503637
398,0.504713
400,0.505789
402,0.506866
404,0.507705
406,0.5034
408,0.499095
410,0.491996
412,0.482789
414,0.472026
416,0.462456
418,0.452421
420,0.43807
422,0.423719
424,0.403211
426,0.390566
428,0.376895
430,0.353421
432,0.341853
434,0.332166
436,0.318855
438,0.28423
440,0.269539
442,0.260122
444,0.238224
446,0.215513
448,0.193032
450,0.189803
452,0.184829
454,0.162705
456,0.1584
458,0.154095
460,0.152124
462,0.151355
464,0.150586
466,0.150142
468,0.15074
470,0.151338
472,0.151936
474,0.152534
476,0.153757
478,0.155102
480,0.156447
482,0.157793
484,0.166184
486,0.172693
488,0.176281
490,0.179868
492,0.184819
494,0.191012
496,0.197204
498,0.202583
500,0.206315
502,0.210047
504,0.214102
506,0.219781
508,0.225459
510,0.231138
512,0.236816
514,0.242895
516,0.24938
518,0.255866
520,0.262351
522,0.268837
524,0.275782
526,0.282798
528,0.289815
530,0.296831
532,0.303848
534,0.311178
536,0.319508
538,0.327838
540,0.336168
542,0.344498
544,0.353207
546,0.362027
548,0.370847
550,0.379666
552,0.389143
554,0.399273
556,0.409403
558,0.419533
560,0.429673
562,0.439824
564,0.449976
566,0.460128
568,0.470279
570,0.480756
572,0.492253
574,0.50375
576,0.518156
578,0.534275
580,0.550185
582,0.557772
584,0.565358
586,0.576216
588,0.588885
590,0.601554
592,0.6155
594,0.629777
596,0.643445
598,0.656839
600,0.670037
602,0.682986
604,0.695935
606,0.708121
608,0.720275
610,0.737198
612,0.74992
614,0.761988
616,0.781114
618,0.7951737
620,0.802107
622,0.809041
624,0.824668
626,0.837954
628,0.845009
630,0.852065
632,0.861781
634,0.872473
636,0.884072
638,0.896181
640,0.904298
642,0.910577
644,0.916855
646,0.9265
648,0.937263
650,0.942528
652,0.946372
654,0.950216
656,0.956232
658,0.965918
660,0.975605
662,0.97849
664,0.980836
666,0.983183
668,0.986203
670,0.990929
672,0.995655
674,0.999928
676,0.999031
678,0.998134
680,0.996307
682,0.989069
684,0.981831
686,0.974593
688,0.965247
690,0.955699
692,0.94615
694,0.933947
696,0.915569
698,0.895463
700,0.869022
702,0.8504375
704,0.832947
706,0.812066
708,0.790897
710,0.766008
712,0.742789
714,0.723168
716,0.706933
718,0.690698
720,0.671018
722,0.649233
724,0.64283
726,0.636427
728,0.630024
730,0.626379
732,0.623904
734,0.621429
736,0.618954
738,0.618601
740,0.618831
742,0.619061
744,0.61929
746,0.61952
748,0.61975
750,0.62027
752,0.620898
754,0.621525
756,0.622153
758,0.62278
760,0.623408
762,0.616905
764,0.604796
766,0.589133
768,0.571138
770,0.558717
772,0.521158
774,0.472914
776,0.460391
778,0.409039
780,0.3536
782,0.337633
784,0.321666
786,0.279342
788,0.234196
790,0.219411
792,0.198063
794,0.162706
796,0.142974
798,0.130566
799,0.124531