File: conjugated_ECPs/uv_vis_automated/Adv. Mater.2010,22,724–728/metadata/P4a.txt
Wavelength (nm)	Absorbance
438	0.319797
439	0.370558
440	0.375635
441	0.380711
442	0.436548
443	0.456853
444	0.456853
445	0.497462
446	0.48731
447	0.497462
448	0.507614
449	0.507614
450	0.507614
451	0.497462
452	0.48731
453	0.482234
454	0.48731
455	0.482234
456	0.48731
457	0.492386
458	0.502538
459	0.51269
460	0.527919
461	0.517766
462	0.527919
463	0.527919
464	0.527919
465	0.527919
466	0.532995
467	0.502538
468	0.517766
469	0.502538
470	0.477157
471	0.467005
472	0.446701
473	0.365482
474	0.375635
475	0.329949
476	0.299492
477	0.295848
478	0.292204
479	0.288559
480	0.284915
481	0.28127
482	0.277626
483	0.273982
484	0.270337
485	0.266693
486	0.263048
487	0.259404
488	0.255759
489	0.252115
490	0.248471
491	0.244826
492	0.241182
493	0.237537
494	0.233893
495	0.230249
496	0.226604
497	0.22296
498	0.219315
499	0.215671
500	0.212027
501	0.208382
502	0.204738
503	0.201093
504	0.197449
505	0.193805
506	0.19016
507	0.186516
508	0.182871
509	0.179227
510	0.175582
511	0.171938
512	0.168294
513	0.164649
514	0.161005
515	0.15736
516	0.152284
517	0.167513
518	0.172589
519	0.177665
520	0.182741
521	0.187817
522	0.192893
523	0.203046
524	0.19797
525	0.203046
526	0.22335
527	0.232777
528	0.242204
529	0.251632
530	0.261059
531	0.270486
532	0.279913
533	0.28934
534	0.298767
535	0.308194
536	0.317621
537	0.327049
538	0.336476
539	0.345903
540	0.35533
541	0.365482
542	0.380711
543	0.390863
544	0.406091
545	0.416244
546	0.431472
547	0.446701
548	0.456853
549	0.472081
550	0.48731
551	0.502538
552	0.517766
553	0.532995
554	0.553299
555	0.568528
556	0.588832
557	0.604061
558	0.619289
559	0.639594
560	0.654822
561	0.675127
562	0.695431
563	0.71066
564	0.725888
565	0.741117
566	0.766497
567	0.77665
568	0.796954
569	0.817259
570	0.832487
571	0.847716
572	0.862944
573	0.873096
574	0.893401
575	0.908629
576	0.918782
577	0.928934
578	0.939086
579	0.940609
580	0.947208
581	0.953807
582	0.960406
583	0.967005
584	0.973604
585	0.980203
586	0.986802
587	0.993401
588	1
589	1
590	1
591	1
592	0.992386
593	0.994924
594	0.974619
595	0.969543
596	0.964467
597	0.969543
598	0.959391
599	0.954315
600	0.91298
601	0.897027
602	0.881073
603	0.86512
604	0.849166
605	0.833212
606	0.817259
607	0.817259
608	0.796954
609	0.786802
610	0.771574
611	0.786802
612	0.786802
613	0.730964
614	0.720812
615	0.705584
616	0.695431
617	0.695431
618	0.680203
619	0.664975
620	0.649746
621	0.629442
622	0.626904
623	0.624365
624	0.609137
625	0.593909
626	0.573604
627	0.538071
628	0.507614
629	0.477157
630	0.467005
631	0.472081
632	0.451777
633	0.378173
634	0.345178
635	0.360406
636	0.324873
637	0.304569
638	0.274112
639	0.248731
640	0.309645
641	0.19797
642	0.253807
643	0.162437
644	0.142132
645	0.126904
646	0.116751
647	0.0964467
648	0.0862944
649	0.0761421
650	0.0659898
651	0.0609137
652	0.0507614
653	0.0456853
654	0.0253807
655	0.0304569
656	0.0203046
657	0.0203046
658	0.0152284
659	0.0101523
660	0.0152284
661	0.0101523
662	0.005076142
663	0
664	0
665	0