File: conjugated_ECPs/uv_vis_automated/Adv. Mater.2010,22,724–728/metadata/P4b.txt
Wavelength (nm)	Absorbance
438	0.360825
439	0.365979
440	0.396907
441	0.412371
442	0.412371
443	0.405589
444	0.398806
445	0.392024
446	0.385241
447	0.378459
448	0.371677
449	0.364894
450	0.358112
451	0.351329
452	0.344547
453	0.337765
454	0.330982
455	0.3242
456	0.317417
457	0.310635
458	0.303852
459	0.29707
460	0.290288
461	0.283505
462	0.276723
463	0.26994
464	0.263158
465	0.256375
466	0.249593
467	0.242811
468	0.236028
469	0.229246
470	0.222463
471	0.215681
472	0.208899
473	0.202116
474	0.195334
475	0.188551
476	0.181769
477	0.174986
478	0.168204
479	0.161422
480	0.154639
481	0.139175
482	0.139175
483	0.123711
484	0.113402
485	0.108247
486	0.103093
487	0.0927835
488	0.0927835
489	0.0824742
490	0.0850515
491	0.0876289
492	0.0876289
493	0.0824742
494	0.0876289
495	0.0939964
496	0.100364
497	0.106731
498	0.113099
499	0.119466
500	0.125834
501	0.132201
502	0.138569
503	0.144936
504	0.151304
505	0.157671
506	0.164039
507	0.170406
508	0.176774
509	0.183141
510	0.189509
511	0.195876
512	0.202244
513	0.208611
514	0.214979
515	0.221346
516	0.227714
517	0.234081
518	0.240449
519	0.246816
520	0.253184
521	0.259551
522	0.265919
523	0.272286
524	0.278654
525	0.285021
526	0.291389
527	0.297756
528	0.304124
529	0.310491
530	0.316859
531	0.323226
532	0.329594
533	0.335961
534	0.342329
535	0.348696
536	0.355064
537	0.361431
538	0.367799
539	0.374166
540	0.380534
541	0.386901
542	0.393269
543	0.399636
544	0.406004
545	0.412371
546	0.417526
547	0.438144
548	0.438144
549	0.463918
550	0.474227
551	0.489691
552	0.505155
553	0.530928
554	0.541237
555	0.556701
556	0.572165
557	0.592784
558	0.603093
559	0.623711
560	0.639175
561	0.659794
562	0.675258
563	0.695876
564	0.701031
565	0.731959
566	0.752577
567	0.768041
568	0.78866
569	0.804124
570	0.819588
571	0.835052
572	0.85567
573	0.865979
574	0.881443
575	0.896907
576	0.912371
577	0.92268
578	0.938144
579	0.948454
580	0.953608
581	0.963918
582	0.974227
583	0.994845
584	0.984536
585	0.981443
586	0.983505
587	0.985567
588	0.987629
589	0.989691
590	0.991753
591	0.993814
592	0.995876
593	0.997938
594	1
595	0.994845
596	0.989691
597	0.974227
598	0.963918
599	0.958763
600	0.948454
601	0.938144
602	0.927835
603	0.912371
604	0.902062
605	0.886598
606	0.871134
607	0.860825
608	0.850515
609	0.835052
610	0.819588
611	0.809278
612	0.78866
613	0.778351
614	0.768041
615	0.752577
616	0.742268
617	0.726804
618	0.706186
619	0.690722
620	0.680412
621	0.659794
622	0.64433
623	0.623711
624	0.598511
625	0.578465
626	0.558419
627	0.538373
628	0.518328
629	0.498282
630	0.478236
631	0.45819
632	0.438144
633	0.427835
634	0.412371
635	0.396907
636	0.376289
637	0.35567
638	0.340206
639	0.319588
640	0.304124
641	0.28866
642	0.273196
643	0.257732
644	0.242268
645	0.226804
646	0.21134
647	0.195876
648	0.185567
649	0.170103
650	0.159794
651	0.149485
652	0.139175
653	0.128866
654	0.113402
655	0.108247
656	0.0927835
657	0.0876289
658	0.0824742
659	0.0721649
660	0.0670103
661	0.056701
662	0.056701
663	0.0515464
664	0.0463918
665	0.0412371
666	0.0309278
667	0.0309278
668	0.0257732
669	0.0257732
670	0.0206186
671	0.0206186
672	0.0154639
673	0.0103093
674	0.0103093
675	0.0103093
676	0.008591065
677	0.006872852
678	0.005154639
679	0.00257732
680	0
681	0