File: conjugated_ECPs/uv_vis_automated/Adv. Mater.2010,22,724–728/metadata/P4c.csv
Wavelength (nm),Absorbance
438,0.430233
439,0.459302
440,0.494186
441,0.523256
442,0.569767
443,0.593023
444,0.622093
445,0.639535
446,0.651163
447,0.656977
448,0.645349
449,0.656977
450,0.651163
451,0.639535
452,0.622093
453,0.598837
454,0.581395
455,0.563953
456,0.546512
457,0.55814
458,0.563953
459,0.569767
460,0.563953
461,0.562016
462,0.560078
463,0.55814
464,0.540698
465,0.52907
466,0.540698
467,0.517442
468,0.5
469,0.461563
470,0.434755
471,0.407946
472,0.381137
473,0.354328
474,0.327519
475,0.300711
476,0.273902
477,0.247093
478,0.220284
479,0.193475
480,0.166667
481,0.139858
482,0.113049
483,0.08624031
484,0.0594315
485,0.0326227
486,0.005813953
487,0.005813953
488,0.005813953
489,0.005813953
490,0.005813953
491,0.005813953
492,0
493,0.0116279
494,0.002906977
495,0.005813953
496,0.0232558
497,0.0290698
498,0.01744186
499,0.0232558
500,0.0290698
501,0.0465116
502,0.0523256
503,0.0581395
504,0.0697674
505,0.0755814
506,0.0813953
507,0.0872093
508,0.0872093
509,0.104651
510,0.110465
511,0.104651
512,0.127907
513,0.116279
514,0.145349
515,0.156977
516,0.162791
517,0.174419
518,0.186047
519,0.19186
520,0.186047
521,0.197674
522,0.226744
523,0.238372
524,0.25
525,0.267442
526,0.27907
527,0.290698
528,0.302326
529,0.319767
530,0.331395
531,0.348837
532,0.360465
533,0.377907
534,0.389535
535,0.412791
536,0.424419
537,0.44186
538,0.459302
539,0.476744
540,0.494186
541,0.511628
542,0.52907
543,0.546512
544,0.569767
545,0.581395
546,0.604651
547,0.622093
548,0.639535
549,0.656977
550,0.680233
551,0.697674
552,0.715116
553,0.732558
554,0.755814
555,0.767442
556,0.790698
557,0.802326
558,0.819767
559,0.831395
560,0.854651
561,0.866279
562,0.883721
563,0.895349
564,0.901163
565,0.918605
566,0.906977
567,0.918605
568,0.947674
569,0.952762
570,0.957849
571,0.962936
572,0.968023
573,0.97311
574,0.978198
575,0.983285
576,0.988372
577,1
578,1
579,1
580,1
581,1
582,0.988372
583,0.979328
584,0.970284
585,0.96124
586,0.952196
587,0.943152
588,0.934109
589,0.925065
590,0.916021
591,0.906977
592,0.912791
593,0.901163
594,0.883721
595,0.872093
596,0.854651
597,0.837209
598,0.819767
599,0.802326
600,0.784884
601,0.767442
602,0.755814
603,0.738372
604,0.72093
605,0.703488
606,0.69186
607,0.674419
608,0.662791
609,0.651163
610,0.639535
611,0.627907
612,0.622093
613,0.610465
614,0.598837
615,0.593023
616,0.581395
617,0.569767
618,0.563953
619,0.552326
620,0.540698
621,0.505814
622,0.517442
623,0.505814
624,0.488372
625,0.476744