File: conjugated_ECPs/uv_vis_automated/Macromolecules, 51, 22, 9250-9258, 2018/metadata/DMOT.csv
wavelength,absor
82,0.421053
84,0.432749
86,0.444444
88,0.432749
90,0.444444
92,0.479532
94,0.467836
96,0.508772
98,0.526316
100,0.51462
102,0.549708
104,0.567251
106,0.578947
108,0.596491
110,0.614035
112,0.631579
114,0.649123
116,0.666667
118,0.654971
120,0.701754
122,0.719298
124,0.736842
126,0.748538
128,0.77193
130,0.783626
132,0.80117
134,0.824561
136,0.842105
138,0.853801
140,0.871345
142,0.888889
144,0.900585
146,0.912281
148,0.900585
150,0.94152
152,0.947368
154,0.959064
156,0.97076
158,0.959064
160,0.974659
162,0.994152
164,1
166,0.988304
168,0.986745
170,0.985185
172,0.983626
174,0.982066
176,0.980507
178,0.978947
180,0.977388
182,0.975828
184,0.974269
186,0.97271
188,0.97115
190,0.969591
192,0.968031
194,0.966472
196,0.964912
198,0.959064
200,0.947368
202,0.94152
204,0.906433
206,0.906433
208,0.894737
210,0.883041
212,0.883041
214,0.861598
216,0.840156
218,0.818713
220,0.830409
222,0.818713
224,0.807018
226,0.789474
228,0.754386
230,0.766082
232,0.725146
234,0.736842
236,0.719298
238,0.678363
240,0.684211
242,0.643275
244,0.654971
246,0.631579
248,0.606238
250,0.590643
252,0.602339
254,0.590643
256,0.549708
258,0.561404
260,0.52924
262,0.532164
264,0.51462
266,0.497076
268,0.444444
270,0.461988
272,0.444444
274,0.415205
276,0.397661
278,0.358396
280,0.350042
282,0.341688
284,0.333333
286,0.324979
288,0.316625
290,0.308271
292,0.298246
294,0.269006
296,0.280702
298,0.25731
300,0.245614
302,0.245614
304,0.233918
306,0.222222
308,0.204678
310,0.181287
312,0.163743
314,0.146199
316,0.128655
318,0.102339
320,0.0701754
322,0.0818713
324,0.0467836
326,0.0584795
328,0.0292398
330,0.0409357
332,0.0350877
334,0.025731
336,0.0163743
338,0.0233918
340,0.00935673
342,0.00701754
344,0.00584795
346,0.0175439
348,0.0150376
350,0.0125313
352,0.0100251
354,0.0075188
356,0.00501253
358,0.00250627
360,0.0
362,0.0
364,0.0
366,0.0116959
368,0.0116959
370,0.0116959
372,0.0116959
374,0.0116959
376,0.0116959
378,0.0116959
380,0.0116959
382,0.0116959
384,0.0116959
386,0.0116959
387,0.0116959