File: conjugated_ECPs/uv_vis_automated/Macromolecules, 51, 22, 9250-9258, 2018/metadata/DMP.csv
wavelength,absor
56,0.344633
58,0.344633
60,0.344633
62,0.333333
64,0.322034
66,0.305085
68,0.299435
70,0.293785
72,0.288136
74,0.282486
76,0.282486
78,0.276836
80,0.276836
82,0.276836
84,0.282486
86,0.282486
88,0.288136
90,0.293785
92,0.293785
94,0.299435
96,0.305085
98,0.316384
100,0.316384
102,0.310734
104,0.310734
106,0.322034
108,0.333333
110,0.344633
112,0.350282
114,0.361582
116,0.372881
118,0.384181
120,0.39548
122,0.412429
124,0.423729
126,0.429379
128,0.446328
130,0.457627
132,0.474576
134,0.478814
136,0.498588
138,0.518362
140,0.538136
142,0.55791
144,0.577684
146,0.59322
148,0.615819
150,0.627119
152,0.649718
154,0.661017
156,0.689266
158,0.694915
160,0.725047
162,0.740113
164,0.751412
166,0.774011
168,0.785311
170,0.80226
172,0.819209
174,0.836158
176,0.853107
178,0.870056
180,0.887006
182,0.903955
184,0.920904
186,0.932203
188,0.937853
190,0.949153
192,0.954802
194,0.966102
196,0.971751
198,0.983051
200,0.988701
202,0.986817
204,0.99435
206,0.996234
208,1.0
210,1.0
212,1.0
214,0.99322
216,0.99096
218,0.988701
220,0.983051
222,0.983051
224,0.971751
226,0.966102
228,0.960452
230,0.947269
232,0.943503
234,0.926554
236,0.915254
238,0.903955
240,0.887006
242,0.870056
244,0.847458
246,0.836158
248,0.809322
250,0.789548
252,0.779661
254,0.751412
256,0.728814
258,0.706215
260,0.683616
262,0.661017
264,0.632768
266,0.59322
268,0.570621
270,0.553672
272,0.525424
274,0.491525
276,0.463277
278,0.440678
280,0.40113
282,0.378531
284,0.344633
286,0.310734
288,0.288136
290,0.271186
292,0.254237
294,0.231638
296,0.20339
298,0.186441
300,0.163842
302,0.146893
304,0.129944
306,0.112994
308,0.0960452
310,0.079096
312,0.0677966
314,0.0564972
316,0.0451977
318,0.039548
320,0.0338983
322,0.0254237
324,0.0225989
326,0.0169492
328,0.0131827
330,0.0112994
332,0.0112994
334,0.0112994
336,0.00533584
338,0.00502197
340,0.0047081
342,0.00439422
344,0.00408035
346,0.00376648
348,0.00345261
350,0.00313873
352,0.00282486
354,0.00251099
356,0.00219711
358,0.00188324
360,0.00156937
362,0.00125549
364,0.00094162
366,0.000627746
368,0.000313873
370,0.0
372,0.0
374,0.0
376,0.0
378,0.0
380,0.0
382,0.0