File: conjugated_ECPs/uv_vis_automated/Macromolecules, 51, 22, 9250-9258, 2018/metadata/EDOT.csv
wavelength,absor
310,0.417996
311,0.414217
312,0.410438
313,0.406659
314,0.403355
315,0.400088
316,0.39682
317,0.39411
318,0.391617
319,0.389124
320,0.386763
321,0.385219
322,0.383674
323,0.38213
324,0.38105
325,0.38013
326,0.37921
327,0.378572
328,0.378457
329,0.378342
330,0.378227
331,0.379007
332,0.379829
333,0.38065
334,0.381979
335,0.383704
336,0.38543
337,0.387308
338,0.389954
339,0.392599
340,0.395244
341,0.398296
342,0.401467
343,0.404638
344,0.408014
345,0.411727
346,0.415441
347,0.419154
348,0.420742
349,0.422295
350,0.423847
351,0.427775
352,0.432523
353,0.437272
354,0.442387
355,0.447588
356,0.452839
357,0.458307
358,0.463774
359,0.469534
360,0.475409
361,0.481566
362,0.488139
363,0.494662
364,0.501032
365,0.507433
366,0.514169
367,0.520904
368,0.52799
369,0.535105
370,0.542228
371,0.549356
372,0.556535
373,0.563774
374,0.57123
375,0.578705
376,0.586216
377,0.593925
378,0.601822
379,0.6095
380,0.617066
381,0.62481
382,0.632597
383,0.640704
384,0.648895
385,0.657281
386,0.665422
387,0.673375
388,0.681327
389,0.689279
390,0.697232
391,0.705186
392,0.713304
393,0.721396
394,0.729348
395,0.737284
396,0.745181
397,0.753053
398,0.760895
399,0.768803
400,0.776756
401,0.784583
402,0.79237
403,0.799809
404,0.807209
405,0.814609
406,0.822053
407,0.829674
408,0.837066
409,0.844024
410,0.8509
411,0.857693
412,0.864557
413,0.87146
414,0.878312
415,0.88515
416,0.891409
417,0.897511
418,0.903475
419,0.909284
420,0.915092
421,0.920435
422,0.925778
423,0.930928
424,0.935909
425,0.94089
426,0.945277
427,0.949471
428,0.953666
429,0.957646
430,0.961425
431,0.965205
432,0.968902
433,0.972011
434,0.975119
435,0.978196
436,0.980396
437,0.982597
438,0.984798
439,0.986998
440,0.989199
441,0.990661
442,0.991926
443,0.993191
444,0.99419
445,0.994782
446,0.995373
447,0.995964
448,0.995964
449,0.995964
450,0.995964
451,0.995506
452,0.994751
453,0.993995
454,0.992961
455,0.991446
456,0.989931
457,0.988415
458,0.9869
459,0.985385
460,0.983429
461,0.981244
462,0.979059
463,0.97674
464,0.974045
465,0.97135
466,0.968656
467,0.965633
468,0.962561
469,0.959488
470,0.956159
471,0.952544
472,0.948929
473,0.945277
474,0.941187
475,0.937097
476,0.933007
477,0.92875
478,0.92446
479,0.920171
480,0.915677
481,0.911138
482,0.9066
483,0.901538
484,0.896464
485,0.891491
486,0.886705
487,0.881919
488,0.876865
489,0.871612
490,0.86636
491,0.861312
492,0.856315
493,0.851326
494,0.846369
495,0.841412
496,0.836305
497,0.831077
498,0.825849
499,0.820841
500,0.815897
501,0.810937
502,0.805891
503,0.800845
504,0.795742
505,0.790628
506,0.785513
507,0.780399
508,0.775285
509,0.770173
510,0.765076
511,0.759979
512,0.754848
513,0.749683
514,0.744518
515,0.739433
516,0.734359
517,0.729308
518,0.724326
519,0.719343
520,0.714372
521,0.709415
522,0.704457
523,0.69974
524,0.695124
525,0.690509
526,0.685988
527,0.681495
528,0.677002
529,0.672747
530,0.6686
531,0.664454
532,0.660442
533,0.656597
534,0.652753
535,0.648926
536,0.645426
537,0.641927
538,0.638427
539,0.635068
540,0.631782
541,0.628496
542,0.625162
543,0.621695
544,0.618228
545,0.614761
546,0.61118
547,0.607582
548,0.603984
549,0.60019
550,0.596181
551,0.592172
552,0.588149
553,0.583963
554,0.579776
555,0.57559
556,0.571166
557,0.566697
558,0.562228
559,0.557404
560,0.552544
561,0.547707
562,0.543019
563,0.538331
564,0.533608
565,0.528822
566,0.524036
567,0.519396
568,0.514864
569,0.510332
570,0.506049
571,0.501903
572,0.497756
573,0.493725
574,0.489864
575,0.486003
576,0.482148
577,0.478862
578,0.475576
579,0.472289
580,0.469231
581,0.466314
582,0.463398
583,0.460481
584,0.457658
585,0.454879
586,0.452099
587,0.449377
588,0.446665
589,0.443954
590,0.441037
591,0.43785
592,0.434662
593,0.431457
594,0.427809
595,0.424162
596,0.420514
597,0.41647
598,0.412207
599,0.407943