File: conjugated_ECPs/uv_vis_automated/Macromolecules, 51, 22, 9250-9258, 2018/metadata/ProDOT.csv
wavelength,absor
58,
59,0.13522
60,0.132075
61,0.138365
62,0.138365
63,0.123428
64,0.121069
65,0.118711
66,0.116352
67,0.113994
68,0.111635
69,0.109277
70,0.106918
71,0.106918
72,0.106918
73,0.0943396
74,0.100629
75,0.100629
76,0.0947589
77,0.0951782
78,0.0955975
79,0.0960168
80,0.0964361
81,0.0968553
82,0.0972746
83,0.0976939
84,0.0981132
85,0.0985325
86,0.0989518
87,0.0993711
88,0.0997904
89,0.10021
90,0.100629
91,0.106918
92,0.106918
93,0.110063
94,0.113208
95,0.113208
96,0.113208
97,0.106918
98,0.110512
99,0.114106
100,0.1177
101,0.121294
102,0.124888
103,0.128482
104,0.132075
105,0.132075
106,0.138365
107,0.138365
108,0.144654
109,0.144654
110,0.150943
111,0.150943
112,0.157233
113,0.157233
114,0.150943
115,0.160377
116,0.169811
117,0.163522
118,0.172956
119,0.18239
120,0.18239
121,0.176101
122,0.194969
123,0.194969
124,0.201258
125,0.207547
126,0.210692
127,0.213836
128,0.201258
129,0.220126
130,0.220126
131,0.226415
132,0.232704
133,0.238994
134,0.245283
135,0.232704
136,0.240042
137,0.247379
138,0.254717
139,0.262055
140,0.269392
141,0.27673
142,0.283019
143,0.289308
144,0.295597
145,0.295597
146,0.301887
147,0.308176
148,0.314465
149,0.320755
150,0.327044
151,0.333333
152,0.339623
153,0.345912
154,0.352201
155,0.358491
156,0.36478
157,0.371069
158,0.377358
159,0.383648
160,0.389937
161,0.396226
162,0.396226
163,0.396226
164,0.415094
165,0.408805
166,0.427673
167,0.421384
168,0.433962
169,0.446541
170,0.459119
171,0.468553
172,0.477987
173,0.484277
174,0.490566
175,0.496855
176,0.496855
177,0.515723
178,0.509434
179,0.528302
180,0.540881
181,0.54717
182,0.559748
183,0.566038
184,0.572327
185,0.578616
186,0.591195
187,0.578616
188,0.584906
189,0.616352
190,0.625786
191,0.63522
192,0.641509
193,0.654088
194,0.641509
195,0.650314
196,0.665409
197,0.680503
198,0.695597
199,0.710692
200,0.716981
201,0.72327
202,0.72956
203,0.742138
204,0.754717
205,0.761006
206,0.773585
207,0.779874
208,0.779874
209,0.779874
210,0.805031
211,0.811321
212,0.823899
213,0.823899
214,0.823899
215,0.842767
216,0.849057
217,0.855346
218,0.849057
219,0.874214
220,0.880503
221,0.893082
222,0.899371
223,0.90566
224,0.90566
225,0.902166
226,0.911251
227,0.920335
228,0.92942
229,0.938505
230,0.947589
231,0.956674
232,0.965758
233,0.974843
234,0.974843
235,0.981132
236,0.974843
237,0.987421
238,0.993711
239,0.983229
240,0.985325
241,0.987421
242,0.989518
243,0.991614
244,0.993711
245,0.995807
246,0.997904
247,1.0
248,1.0
249,1.0
250,0.989518
251,0.991614
252,0.993711
253,0.993711
254,0.983229
255,0.985325
256,0.987421
257,0.981132
258,0.981132
259,0.981132
260,0.981132
261,0.981132
262,0.981132
263,0.974843
264,0.974843
265,0.974843
266,0.974843
267,0.974843
268,0.968553
269,0.968553
270,0.962264
271,0.962264
272,0.955975
273,0.949686
274,0.937107
275,0.924528
276,0.91195
277,0.899371
278,0.90566
279,0.899371
280,0.880503
281,0.874214
282,0.855346
283,0.849057
284,0.830189
285,0.81761
286,0.798742
287,0.786164
288,0.761006
289,0.748428
290,0.735849
291,0.72327
292,0.704403
293,0.685535
294,0.672956
295,0.654088
296,0.647799
297,0.628931
298,0.597484
299,0.597484
300,0.603774
301,0.591195
302,0.591195
303,0.578616
304,0.578616
305,0.575472
306,0.572327
307,0.566038
308,0.559748
309,0.553459
310,0.534591
311,0.540881
312,0.534591
313,0.528302
314,0.522013
315,0.515723
316,0.503145
317,0.496855
318,0.484277
319,0.459119
320,0.459119
321,0.45283
322,0.412998
323,0.385744
324,0.358491
325,0.358491
326,0.36478
327,0.339623
328,0.327044
329,0.295597
330,0.283019
331,0.251572
332,0.238994
333,0.213836
334,0.194969
335,0.150943
336,0.106918
337,0.106918
338,0.113208
339,0.081761
340,0.0471698
341,0.0125786
342,0.0
343,0.0188679
344,0.00628931