File: conjugated_ECPs/uv_vis_automated/Macromol., 49, 6350-6359, 2016/metadata/Ac-Ac_EBE.csv
Wavelength (nm),Absorbance
400,0.876556
402,0.90295
404,0.930116
406,0.957834
408,0.985715
410,1.01349
412,1.04193
414,1.07102
416,1.09988
418,1.12815
420,1.1553
422,1.18301
424,1.21009
426,1.2375
428,1.26316
430,1.28723
432,1.31008
434,1.33202
436,1.35265
438,1.37172
440,1.38901
442,1.40577
444,1.41855
446,1.43103
448,1.44121
450,1.44818
452,1.45515
454,1.46165
456,1.46155
458,1.46145
460,1.46135
462,1.45879
464,1.45223
466,1.44567
468,1.43801
470,1.42592
472,1.41384
474,1.39799
476,1.38147
478,1.36204
480,1.3409
482,1.31797
484,1.29463
486,1.26884
488,1.24152
490,1.21291
492,1.1835
494,1.15401
496,1.12523
498,1.09521
500,1.06482
502,1.03384
504,1.00406
506,0.974922
508,0.945884
510,0.917498
512,0.892859
514,0.864136
516,0.83742
518,0.812157
520,0.788118
522,0.765256
524,0.742161
526,0.721104
528,0.701261
530,0.682984
532,0.665805
534,0.649575
536,0.635013
538,0.621187
540,0.609017
542,0.598399
544,0.587781
546,0.579846
548,0.573241
550,0.566636
552,0.560675
554,0.558344
556,0.556012
558,0.553681
560,0.55355
562,0.555947
564,0.558344
566,0.560741
568,0.566262
570,0.572666
572,0.579069
574,0.585705
576,0.594575
578,0.603445
580,0.612314
582,0.622314
584,0.632702
586,0.643089
588,0.654274
590,0.665551
592,0.677092
594,0.689059
596,0.701027
598,0.712953
600,0.724873
602,0.736784
604,0.748656
606,0.760529
608,0.772242
610,0.783878
612,0.795407
614,0.806396
616,0.817385
618,0.827972
620,0.838133
622,0.848293
624,0.8582
626,0.867962
628,0.877723
630,0.886793
632,0.895442
634,0.90409
636,0.912402
638,0.920283
640,0.928165
642,0.936046
644,0.943081
646,0.950042
648,0.957004
650,0.963386
652,0.967885
654,0.972383
656,0.976882
658,0.98075
660,0.9841
662,0.98745
664,0.990858
666,0.994275
668,0.997692
670,1.0
672,1.0
674,1.0
676,1.0
678,0.997907
680,0.995097
682,0.992287
684,0.989477
686,0.986175
688,0.98276
690,0.979345
692,0.975766
694,0.971071
696,0.966375
698,0.961679
700,0.956025
702,0.949162
704,0.942298
706,0.935435
708,0.927739
710,0.919775
712,0.911811
714,0.903624
716,0.894723
718,0.885823
720,0.876923
722,0.867511
724,0.858036
726,0.84856
728,0.838917
730,0.829205
732,0.819492
734,0.809322
736,0.798947
738,0.788573
740,0.777942
742,0.767264
744,0.756535
746,0.745546
748,0.7345575
750,0.723343
752,0.711887
754,0.70043
756,0.688717
758,0.676996
760,0.66492
762,0.652423
764,0.639926
766,0.627744
768,0.615581
770,0.602762
772,0.589503
774,0.576232
776,0.562944
778,0.549633
780,0.536254
782,0.522874
784,0.509237
786,0.49557
788,0.482155
790,0.468838
792,0.455487
794,0.442108
796,0.42884
798,0.416028
799,0.409622