File: conjugated_ECPs/uv_vis_automated/Macromol., 49, 6350-6359, 2016/metadata/Pro-Ac0.75_EBE_0.25.csv
Wavelength (nm),Absorbance
400,0.520077
402,0.535474
404,0.551632
406,0.568266
408,0.585006
410,0.603404
412,0.621946
414,0.641177
416,0.661055
418,0.681584
420,0.701703
422,0.723595
424,0.746519
426,0.769614
428,0.79295
430,0.816136
432,0.839447
434,0.863287
436,0.886892
438,0.911392
440,0.936292
442,0.960727
444,0.985418
446,1.00886
448,1.03308
450,1.05785
452,1.082435
454,1.1059
456,1.12897
458,1.15179
460,1.17373
462,1.19514
464,1.21607
466,1.23593
468,1.25528
470,1.27371
472,1.29071
474,1.30706
476,1.32293
478,1.33871
480,1.35271
482,1.36636
484,1.37861
486,1.39013
488,1.40113
490,1.40902
492,1.41692
494,1.42482
496,1.42849
498,1.43201
500,1.43552
502,1.43806
504,1.43806
506,1.43806
508,1.43806
510,1.43691
512,1.43497
514,1.43303
516,1.4311
518,1.42695
520,1.42258
522,1.41822
524,1.41304
526,1.40504
528,1.39705
530,1.38905
532,1.37704
534,1.36445
536,1.35141
538,1.33642
540,1.32113
542,1.30444
544,1.28751
546,1.27034
548,1.25382
550,1.23742
552,1.22174
554,1.20606
556,1.19292
558,1.17984
560,1.16717
562,1.1546
564,1.14234
566,1.13047
568,1.1186
570,1.10568
572,1.0927
574,1.0785
576,1.06349
578,1.04782
580,1.03169
582,1.01429
584,0.996498
586,0.979148
588,0.96183
590,0.944559
592,0.928142
594,0.91206
596,0.898869
598,0.886871
600,0.875048
602,0.869336
604,0.863625
606,0.857914
608,0.856918
610,0.858166
612,0.859414
614,0.860662
616,0.866178
618,0.871727
620,0.877277
622,0.8833
624,0.890392
626,0.897485
628,0.904578
630,0.911386
632,0.918019
634,0.924652
636,0.931285
638,0.937765
640,0.944233
642,0.950702
644,0.956826
646,0.961916
648,0.967006
650,0.972095
652,0.976202
654,0.979551
656,0.982901
658,0.98625
660,0.988357
662,0.990295
664,0.992232
666,0.993953
668,0.994774
670,0.995595
672,0.996415
674,0.996083
676,0.994639
678,0.993194
680,0.991749
682,0.98806
684,0.983889
686,0.979719
688,0.975218
690,0.96865
692,0.962083
694,0.955515
696,0.948091
698,0.939631
700,0.93117
702,0.922529
704,0.912297
706,0.902065
708,0.891548
710,0.880196
712,0.868843
714,0.856529
716,0.843879
718,0.831036
720,0.8179
722,0.804738
724,0.791101
726,0.777463
728,0.763687
730,0.749891
732,0.735713
734,0.721476
736,0.706861
738,0.692182
740,0.677875
742,0.663637
744,0.649307
746,0.634959
748,0.62043
750,0.605861
752,0.591113
754,0.576323
756,0.56171
758,0.547141
760,0.532987
762,0.518942
764,0.505206
766,0.491664
768,0.478202
770,0.464958
772,0.451637
774,0.437548
776,0.42346
778,0.410019
780,0.396639
782,0.383986
784,0.371886
786,0.359819
788,0.348306
790,0.336792
792,0.325439
794,0.314221
796,0.303002
798,0.292853
799,0.287865