File: conjugated_ECPs/uv_vis_automated/Macromol., 49, 6350-6359, 2016/metadata/Pro-Ac0.7_EBE_0.3.csv
Wavelength (nm),Absorbance
400,0.489696
402,0.50179
404,0.514968
406,0.528146
408,0.545902
410,0.565413
412,0.577853
414,0.591047
416,0.610402
418,0.629473
420,0.648329
422,0.66751
424,0.687031
426,0.70746
428,0.728031
430,0.748698
432,0.769661
434,0.790483
436,0.810832
438,0.83104
440,0.851147
442,0.873426
444,0.894197
446,0.913618
448,0.932898
450,0.952272
452,0.972433
454,0.993447
456,1.01379
458,1.03051
460,1.04672
462,1.06218
464,1.07678
466,1.09009
468,1.10292
470,1.11414
472,1.12535
474,1.1351
476,1.14366
478,1.15223
480,1.16012
482,1.16554
484,1.17096
486,1.17638
488,1.18001
490,1.18211
492,1.18421
494,1.18631
496,1.18512
498,1.18342
500,1.18171
502,1.17931
504,1.17575
506,1.1722
508,1.16864
510,1.16428
512,1.15919
514,1.1541
516,1.14901
518,1.14261
520,1.13598
522,1.12934
524,1.12239
526,1.11387
528,1.10536
530,1.09684
532,1.08654
534,1.07589
536,1.06523
538,1.05312
540,1.04099
542,1.02877
544,1.01644
546,1.00419
548,0.992346
550,0.980505
552,0.969845
554,0.959455
556,0.949325
558,0.940772
560,0.932219
562,0.923665
564,0.915781
566,0.908062
568,0.900343
570,0.89264
572,0.885053
574,0.877465
576,0.869877
578,0.862364
580,0.854941
582,0.847517
584,0.840094
586,0.833568
588,0.827294
590,0.82102
592,0.815081
594,0.811928
596,0.808775
598,0.805621
600,0.804505
602,0.806049
604,0.807593
606,0.809137
608,0.813651
610,0.819104
612,0.824557
614,0.830166
616,0.837425
618,0.844684
620,0.851943
622,0.859635
624,0.867942
626,0.876249
628,0.884556
630,0.892526
632,0.900461
634,0.908397
636,0.916101
638,0.923459
640,0.930817
642,0.938174
644,0.944722
646,0.950962
648,0.957203
650,0.963355
652,0.967888
654,0.972421
656,0.976954
658,0.981337
660,0.985476
662,0.989615
664,0.993754
666,0.996843
668,0.999492
670,1.00214
672,1.00384
674,1.00168
676,0.999531
678,0.997377
680,0.995223
682,0.993069
684,0.990916
686,0.988762
688,0.986608
690,0.982921
692,0.978519
694,0.974117
696,0.969697
698,0.963094
700,0.956492
702,0.94989
704,0.942562
706,0.933794
708,0.925026
710,0.916258
712,0.905376
714,0.894485
716,0.883491
718,0.87194
720,0.860389
722,0.84857
724,0.836466
726,0.824363
728,0.811959
730,0.799549
732,0.786759
734,0.773758
736,0.760328
738,0.746417
740,0.732632
742,0.718991
744,0.705219
746,0.691141
748,0.677028
750,0.662676
752,0.64831
754,0.633847
756,0.619371
758,0.604798
760,0.590161
762,0.575036
764,0.559996
766,0.545644
768,0.531256
770,0.516572
772,0.501854
774,0.486839
776,0.471847
778,0.457052
780,0.442312
782,0.428069
784,0.413843
786,0.399764
788,0.385686
790,0.372398
792,0.359176
794,0.346049
796,0.33299
798,0.318211
799,0.3096