File: conjugated_ECPs/uv_vis_automated/Macromol., 49, 6350-6359, 2016/metadata/Pro-Pro_EBE.txt
Wavelength (nm),Absorbance
400,0.422384
402,0.434375
404,0.446636
406,0.459185
408,0.471997
410,0.485079
412,0.4994
414,0.513723
416,0.528954
418,0.544185
420,0.560072
422,0.576271
424,0.594231
426,0.611181
428,0.627006
430,0.644653
432,0.662935
434,0.684434
436,0.705121
438,0.724756
440,0.745498
442,0.766313
444,0.787134
446,0.808315
448,0.829675
450,0.851749
452,0.873982
454,0.896158
456,0.917763
458,0.940366
460,0.962249
462,0.983757
464,1.00638
466,1.0279
468,1.0491
470,1.07014
472,1.09036
474,1.1103
476,1.12999
478,1.15002
480,1.16955
482,1.18809
484,1.20697
486,1.22644
488,1.24704
490,1.26763
492,1.28599
494,1.30381
496,1.32181
498,1.33931
500,1.35557
502,1.37085
504,1.38491
506,1.39806
508,1.40874
510,1.41941
512,1.42887
514,1.43824
516,1.44761
518,1.45641
520,1.46479
522,1.47318
524,1.48206
526,1.49269
528,1.50331
530,1.51361
532,1.52338
534,1.53315
536,1.54123
538,1.54631
540,1.55138
542,1.55646
544,1.55372
546,1.54951
548,1.5453
550,1.53735
552,1.52553
554,1.51371
556,1.49802
558,1.48223
560,1.46666
562,1.4511
564,1.43968
566,1.42845
568,1.41796
570,1.41351
572,1.40905
574,1.4046
576,1.40119
578,1.39921
580,1.39723
582,1.39525
584,1.38965
586,1.38277
588,1.37589
590,1.3651
592,1.35118
594,1.33472
596,1.31411
598,1.28565
600,1.25687
602,1.22659
604,1.19461
606,1.16146
608,1.1266
610,1.09226
612,1.05937
614,1.03007
616,1.00514
618,0.985323
620,0.972526
622,0.95973
624,0.951674
626,0.946324
628,0.940974
630,0.937371
632,0.93812
634,0.93887
636,0.939972
638,0.941303
640,0.942635
642,0.950764
644,0.962684
646,0.966138
648,0.968124
650,0.970111
652,0.973001
654,0.978299
656,0.983597
658,0.98845
660,0.99299
662,0.997531
664,1.00052
666,1.00165
668,1.00279
670,1.00356
672,1.00356
674,1.00356
676,1.00279
678,0.998818
680,0.995164
682,0.991986
684,0.98877
686,0.985364
688,0.981958
690,0.978489
692,0.973191
694,0.967893
696,0.961625
698,0.953545
700,0.945465
702,0.937043
704,0.927698
706,0.918353
708,0.908846
710,0.897643
712,0.886441
714,0.874814
716,0.86257
718,0.850271
720,0.837135
722,0.823998
724,0.810456
726,0.796752
728,0.783035
730,0.769295
732,0.755396
734,0.740827
736,0.726218
738,0.711428
740,0.696657
742,0.681978
744,0.667281
746,0.652491
748,0.637719
750,0.623039
752,0.60831
754,0.593278
756,0.577926
758,0.562204
760,0.546311
762,0.52496
764,0.508812
766,0.494684
768,0.482717
770,0.4704
772,0.455453
774,0.44254
776,0.428053
778,0.412625
780,0.397867
782,0.382151
784,0.368913
786,0.356844
788,0.338475
790,0.324281
792,0.310695
794,0.299437
796,0.288179
798,0.277381
799,0.272084