File: conjugated_ECPs/uv_vis_automated/Macromol., 49, 6350-6359, 2016/metadata/Pro-Ac0.65_EBE_0.35.csv
Wavelength (nm),Absorbance
400,0.454186
402,0.467062
404,0.480752
406,0.500493
408,0.518752
410,0.528858
412,0.538964
414,0.54907
416,0.566063
418,0.583129
420,0.599955
422,0.616397
424,0.63284
426,0.648923
428,0.665539
430,0.685033
432,0.70876
434,0.74125
436,0.763629
438,0.782497
440,0.800382
442,0.819873
444,0.836928
446,0.853079
448,0.868022
450,0.883379
452,0.900454
454,0.916674
456,0.930941
458,0.94519
460,0.960255
462,0.978803
464,0.987525
466,0.992971
468,0.998428
470,1.00389
472,1.00935
474,1.0146
476,1.01812
478,1.02164
480,1.02516
482,1.02841
484,1.03117
486,1.03393
488,1.03669
490,1.03705
492,1.03696
494,1.03582
496,1.0345
498,1.03317
500,1.0267
502,1.02002
504,1.01335
506,1.0069
508,1.00047
510,0.994027
512,0.98733
514,0.978668
516,0.970005
518,0.961938
520,0.954441
522,0.946944
524,0.939446
526,0.930149
528,0.919078
530,0.908008
532,0.896946
534,0.886007
536,0.875067
538,0.864127
540,0.855826
542,0.848898
544,0.841971
546,0.835043
548,0.825842
550,0.816132
552,0.806423
554,0.798341
556,0.792044
558,0.785746
560,0.779448
562,0.774189
564,0.770102
566,0.766015
568,0.761928
570,0.758549
572,0.75535
574,0.752152
576,0.748894
578,0.745454
580,0.742015
582,0.738575
584,0.735619
586,0.738394
588,0.74117
590,0.743945
592,0.746721
594,0.749954
596,0.753772
598,0.757591
600,0.761409
602,0.765713
604,0.770761
606,0.775809
608,0.780857
610,0.787921
612,0.79717
614,0.806418
616,0.815267
618,0.823803
620,0.831998
622,0.839043
624,0.846089
626,0.853135
628,0.861768
630,0.870461
632,0.879154
634,0.887847
636,0.895944
638,0.903893
640,0.911662
642,0.916687
644,0.921713
646,0.933544
648,0.946262
650,0.955924
652,0.962283
654,0.96852
656,0.973289
658,0.978059
660,0.982293
662,0.986268
664,0.990242
666,0.994217
668,0.995726
670,0.99672
672,0.997713
674,0.998707
676,0.998726
678,0.998726
680,0.998726
682,0.998726
684,0.998726
686,0.998726
688,0.994369
690,0.988408
692,0.985977
694,0.984387
696,0.981834
698,0.97786
700,0.973885
702,0.969911
704,0.965936
706,0.961962
708,0.957146
710,0.951847
712,0.946548
714,0.939261
716,0.929682
718,0.916433
720,0.905478
722,0.889274
724,0.877849
726,0.867186
728,0.851556
730,0.83418
732,0.828697
734,0.814756
736,0.800816
738,0.78693
740,0.774013
742,0.763414
744,0.748331
746,0.732433
748,0.716294
750,0.70124
752,0.687358
754,0.673548
756,0.659912
758,0.646078
760,0.630748
762,0.615418
764,0.600935
766,0.586693
768,0.571886
770,0.556718
772,0.539882
774,0.523439
776,0.510463
778,0.497487
780,0.483985
782,0.46901
784,0.454035
786,0.438833
788,0.423476
790,0.408763
792,0.395947
794,0.383131
796,0.3693
798,0.355129
799,0.348043