File: conjugated_ECPs/uv_vis_automated/Chem. Mater.,31, 17, 6841-6849, 2019/metadata/xyz111.txt
Wavelength (nm),Absorbance
330,0.254374
332,0.251499
334,0.249613
336,0.247726
338,0.24584
340,0.243953
342,0.242623
344,0.242531
346,0.242439
348,0.242347
350,0.242255
352,0.243974
354,0.247148
356,0.250323
358,0.253498
360,0.256673
362,0.26128
364,0.26625
366,0.271219
368,0.276188
370,0.281199
372,0.287134
374,0.29307
376,0.299006
378,0.304942
380,0.311403
382,0.318071
384,0.324738
386,0.331405
388,0.338596
390,0.345897
392,0.353197
394,0.360603
396,0.368589
398,0.376576
400,0.384562
402,0.393139
404,0.401775
406,0.41041
408,0.41929
410,0.428202
412,0.437169
414,0.446835
416,0.456501
418,0.466315
420,0.47629
422,0.486265
424,0.496582
426,0.506943
428,0.517395
430,0.528066
432,0.538737
434,0.549678
436,0.560735
438,0.571834
440,0.583289
442,0.594745
444,0.606371
446,0.618063
448,0.629629
450,0.641098
452,0.652746
454,0.66466
456,0.676494
458,0.688075
460,0.699664
462,0.711355
464,0.723047
466,0.734432
468,0.74579
470,0.75717
472,0.768558
474,0.77988
476,0.791092
478,0.802305
480,0.813093
482,0.823764
484,0.834319
486,0.844373
488,0.854427
490,0.864179
492,0.873436
494,0.882693
496,0.8918
498,0.899948
500,0.908096
502,0.916244
504,0.923569
506,0.930501
508,0.937433
510,0.944363
512,0.950023
514,0.955684
516,0.961344
518,0.967004
520,0.971446
522,0.975311
524,0.979176
526,0.983041
528,0.986906
530,0.98867
532,0.990258
534,0.991845
536,0.993433
538,0.994579
540,0.993521
542,0.992462
544,0.991404
546,0.990346
548,0.98817
550,0.98439
552,0.980611
554,0.976831
556,0.973051
558,0.968274
560,0.963149
562,0.958024
564,0.952899
566,0.947607
568,0.941034
570,0.934461
572,0.927889
574,0.920944
576,0.912712
578,0.90448
580,0.896248
582,0.886091
584,0.875897
586,0.864735
588,0.852041
590,0.839021
592,0.824879
594,0.81037
596,0.790466
598,0.772182
600,0.755218
602,0.738255
604,0.721292
606,0.704329
608,0.687649
610,0.671469
612,0.656524
614,0.642296
616,0.629238
618,0.616711
620,0.60418
622,0.591597
624,0.579015
626,0.566649
628,0.5543
630,0.54195
632,0.5296
634,0.517132
636,0.504104
638,0.491066
640,0.477371
642,0.463675
644,0.445436
646,0.426838
648,0.408831
650,0.393166
652,0.376932
654,0.359447
656,0.342012
658,0.324614
660,0.307364
662,0.290329
664,0.274627
666,0.260523
668,0.248575
670,0.236621
672,0.224407
674,0.212192
676,0.201424
678,0.191472
680,0.18152
682,0.173566
684,0.166024
686,0.158482
688,0.151302
690,0.146111
692,0.140919
694,0.135728
696,0.130536
698,0.12657
700,0.123372
702,0.120174
704,0.116976
706,0.113778
708,0.111509
710,0.109392
712,0.107276
714,0.105159
716,0.103118
718,0.101738
720,0.100357
722,0.098977
724,0.0975966
726,0.096328
728,0.0952697
730,0.0942114
732,0.0931531
734,0.0920949
736,0.0913085
738,0.0907103
740,0.0901122
742,0.089514
744,0.0889159
746,0.0883177
748,0.0877196
750,0.0871214
752,0.0865233
754,0.0859488
756,0.0856497
758,0.0853506
760,0.0850516
762,0.0847525
764,0.084446
766,0.0841239
768,0.0838018
770,0.0834797
772,0.0831576
774,0.0828094
776,0.0824413
778,0.0820732
780,0.0817051
782,0.0813371
784,0.0811557
786,0.0810177
788,0.0808796
789,0.0808106