File: conjugated_ECPs/uv_vis_automated/Chem. Mater.,31, 17, 6841-6849, 2019/metadata/xyz112.csv
Wavelength (nm),Absorbance
310,0.184062
312,0.185156
314,0.186249
316,0.18488
318,0.183251
320,0.181623
322,0.179995
324,0.178054
326,0.174774
328,0.171494
330,0.168214
332,0.164934
334,0.161665
336,0.158408
338,0.155152
340,0.151895
342,0.148638
344,0.147055
346,0.146008
348,0.144961
350,0.143914
352,0.142947
354,0.143831
356,0.144715
358,0.145599
360,0.146483
362,0.147912
364,0.150471
366,0.15303
368,0.155589
370,0.158147
372,0.161401
374,0.1651
376,0.168798
378,0.172497
380,0.176196
382,0.180622
384,0.185135
386,0.189648
388,0.194161
390,0.198769
392,0.203817
394,0.208865
396,0.213913
398,0.21896
400,0.224427
402,0.23038
404,0.236334
406,0.242287
408,0.248241
410,0.254683
412,0.261146
414,0.267608
416,0.27407
418,0.28112
420,0.288244
422,0.295369
424,0.302643
426,0.310383
428,0.318124
430,0.325864
432,0.333921
434,0.34205
436,0.35018
438,0.358635
440,0.367309
442,0.375983
444,0.384901
446,0.393985
448,0.403068
450,0.41262
452,0.42228
454,0.431949
456,0.441919
458,0.451889
460,0.462016
462,0.47265
464,0.483283
466,0.494021
468,0.504811
470,0.515651
472,0.526988
474,0.538325
476,0.549728
478,0.561192
480,0.572672
482,0.584238
484,0.595804
486,0.607535
488,0.619306
490,0.63125
492,0.64341
494,0.65557
496,0.667729
498,0.679889
500,0.692049
502,0.704205
504,0.716139
506,0.728074
508,0.739865
510,0.751636
512,0.763144
514,0.774403
516,0.785662
518,0.796553
520,0.807421
522,0.818173
524,0.828728
526,0.839284
528,0.849465
530,0.859551
532,0.869481
534,0.878874
536,0.888267
538,0.897268
540,0.905765
542,0.914263
544,0.922394
546,0.929243
548,0.936092
550,0.942941
552,0.94905
554,0.953865
556,0.958681
558,0.963496
560,0.968312
562,0.971842
564,0.975169
566,0.978496
568,0.981822
570,0.985032
572,0.987568
574,0.990104
576,0.992639
578,0.995175
580,0.996828
582,0.997317
584,0.997805
586,0.998294
588,0.998782
590,0.996528
592,0.993182
594,0.989836
596,0.98649
598,0.982178
600,0.974309
602,0.966439
604,0.95857
606,0.948552
608,0.937941
610,0.926766
612,0.914832
614,0.902934
616,0.891129
618,0.879324
620,0.86853
622,0.857818
624,0.847556
626,0.838122
628,0.828688
630,0.819976
632,0.811819
634,0.803662
636,0.795343
638,0.786899
640,0.778455
642,0.769104
644,0.759052
646,0.748999
648,0.735582
650,0.721975
652,0.705966
654,0.688885
656,0.669785
658,0.64541
660,0.621522
662,0.597321
664,0.571297
666,0.547194
668,0.522394
670,0.497334
672,0.472886
674,0.449828
676,0.426668
678,0.407255
680,0.388515
682,0.369281
684,0.351583
686,0.334458
688,0.31929
690,0.304374
692,0.291201
694,0.278028
696,0.267711
698,0.257444
700,0.24795
702,0.239566
704,0.231182
706,0.223198
708,0.216865
710,0.210532
712,0.204199
714,0.198096
716,0.193653
718,0.18921
720,0.184767
722,0.180324
724,0.176391
726,0.173205
728,0.170018
730,0.166831
732,0.163644
734,0.161035
736,0.158686
738,0.156336
740,0.153987
742,0.151637
744,0.149854
746,0.148086
748,0.146318
749,0.145434