File: conjugated_ECPs/uv_vis_automated/Chem. Mater.,31, 17, 6841-6849, 2019/metadata/xyz122.csv
Wavelength (nm),Absorbance
330,0.223306
332,0.223444
334,0.223582
336,0.222252
338,0.22048
340,0.218709
342,0.216937
344,0.215164
346,0.213255
348,0.211345
350,0.209436
352,0.207526
354,0.205836
356,0.204777
358,0.203719
360,0.202661
362,0.201603
364,0.201905
366,0.203562
368,0.205218
370,0.206874
372,0.208531
374,0.211233
376,0.214293
378,0.217353
380,0.220413
382,0.223473
384,0.227147
386,0.230828
388,0.234509
390,0.23819
392,0.241995
394,0.246205
396,0.250415
398,0.254625
400,0.258835
402,0.263298
404,0.268037
406,0.272776
408,0.277516
410,0.282255
412,0.287476
414,0.292882
416,0.298289
418,0.303695
420,0.309101
422,0.314992
424,0.3209
426,0.326808
428,0.332715
430,0.339133
432,0.345835
434,0.352536
436,0.359238
438,0.366376
440,0.373658
442,0.38094
444,0.388258
446,0.396
448,0.403742
450,0.411484
452,0.419697
454,0.428201
456,0.436704
458,0.445343
460,0.454205
462,0.463067
464,0.472128
466,0.481559
468,0.490989
470,0.500585
472,0.510526
474,0.520468
476,0.530665
478,0.541104
480,0.551543
482,0.562194
484,0.572865
486,0.583661
488,0.594719
490,0.605777
492,0.617026
494,0.628346
496,0.639798
498,0.651489
500,0.663181
502,0.674872
504,0.68657
506,0.698485
508,0.710399
510,0.722217
512,0.73402
514,0.745721
516,0.757378
518,0.769058
520,0.780784
522,0.792509
524,0.803754
526,0.814973
528,0.825968
530,0.836793
532,0.847619
534,0.85784
536,0.868047
538,0.878106
540,0.887927
542,0.897747
544,0.907317
546,0.916821
548,0.926324
550,0.934661
552,0.942973
554,0.951284
556,0.957875
558,0.963849
560,0.969822
562,0.975796
564,0.979982
566,0.983111
568,0.986239
570,0.989368
572,0.992497
574,0.993116
576,0.993369
578,0.993622
580,0.993875
582,0.993954
584,0.992711
586,0.991469
588,0.990227
590,0.988985
592,0.986937
594,0.983463
596,0.979989
598,0.976515
600,0.973041
602,0.967402
604,0.960351
606,0.9533
608,0.946249
610,0.935949
612,0.925404
614,0.913338
616,0.900038
618,0.885413
620,0.869929
622,0.853223
624,0.836372
626,0.81967
628,0.802895
630,0.786019
632,0.769262
634,0.75256
636,0.736692
638,0.72106
640,0.706098
642,0.691223
644,0.676434
646,0.661914
648,0.647473
650,0.633033
652,0.618375
654,0.603238
656,0.587594
658,0.571588
660,0.555433
662,0.53908
664,0.521516
666,0.503426
668,0.484999
670,0.466556
672,0.447876
674,0.428788
676,0.41021
678,0.392032
680,0.37446
682,0.357208
684,0.340157
686,0.324945
688,0.309974
690,0.296408
692,0.282935
694,0.271041
696,0.259602
698,0.248918
700,0.239374
702,0.229829
704,0.221568
706,0.214205
708,0.206843
710,0.199734
712,0.194341
714,0.188948
716,0.183555
718,0.178162
720,0.174111
722,0.170384
724,0.166657
726,0.16293
728,0.15926
730,0.156684
732,0.154107
734,0.15153
736,0.148954
738,0.146587
740,0.144723
742,0.14286
744,0.140996
746,0.139133
748,0.137653
750,0.136503
752,0.135352
754,0.134202
756,0.133052
758,0.132153
760,0.131325
762,0.130497
764,0.129669
766,0.128843
768,0.128107
770,0.127371
772,0.126634
774,0.125898
776,0.125212
778,0.12466
780,0.124107
782,0.123555
784,0.123003
786,0.122463
788,0.121934
789,0.121669