File: conjugated_ECPs/uv_vis_automated/Chem. Mater.,31, 17, 6841-6849, 2019/metadata/xyz121.txt
Wavelength (nm),Absorbance
330,0.203846
332,0.200831
334,0.197815
336,0.195504
338,0.193463
340,0.191422
342,0.189381
344,0.18734
346,0.188291
348,0.189311
350,0.190332
352,0.191352
354,0.19276
356,0.19545
358,0.198141
360,0.200831
362,0.203522
364,0.206632
366,0.210188
368,0.213743
370,0.217298
372,0.221913
374,0.228204
376,0.234495
378,0.240151
380,0.244516
382,0.248882
384,0.253247
386,0.257613
388,0.263097
390,0.26871
392,0.275782
394,0.284763
396,0.293744
398,0.298851
400,0.30384
402,0.308829
404,0.313819
406,0.31952
408,0.325834
410,0.332149
412,0.338463
414,0.347036
416,0.357139
418,0.367018
420,0.375438
422,0.383857
424,0.392608
426,0.402899
428,0.413189
430,0.423189
432,0.43217
434,0.44115
436,0.450131
438,0.459112
440,0.469419
442,0.48289
444,0.496361
446,0.5103
448,0.524332
450,0.536912
452,0.549261
454,0.560265
456,0.569246
458,0.578227
460,0.59141
462,0.604881
464,0.61729
466,0.628516
468,0.639742
470,0.650968
472,0.662304
474,0.676336
476,0.690175
478,0.701401
480,0.712903
482,0.726935
484,0.740197
486,0.748216
488,0.756234
490,0.764253
492,0.782083
494,0.795623
496,0.805246
498,0.814868
500,0.826959
502,0.843429
504,0.850912
506,0.858396
508,0.867023
510,0.878249
512,0.889624
514,0.901295
516,0.912213
518,0.920083
520,0.927954
522,0.935824
524,0.942878
526,0.949832
528,0.956785
530,0.963729
532,0.969444
534,0.975159
536,0.980288
538,0.98508
540,0.989872
542,0.994664
544,0.999078
546,0.999078
548,0.999078
550,0.999078
552,0.999078
554,0.999078
556,0.999078
558,0.996613
560,0.99296
562,0.989308
564,0.985655
566,0.981698
568,0.977476
570,0.973255
572,0.969034
574,0.964813
576,0.958967
578,0.952689
580,0.946411
582,0.940134
584,0.931982
586,0.922995
588,0.914007
590,0.903265
592,0.891665
594,0.879085
596,0.864211
598,0.848885
600,0.832748
602,0.815392
604,0.797325
606,0.778918
608,0.759999
610,0.740435
612,0.721592
614,0.702689
616,0.683746
618,0.664889
620,0.646546
622,0.629106
624,0.612621
626,0.596457
628,0.581373
630,0.566359
632,0.551453
634,0.536588
636,0.52177
638,0.507148
640,0.492991
642,0.478504
644,0.463419
646,0.448003
648,0.432392
650,0.415829
652,0.39926
654,0.383123
656,0.366827
658,0.350339
660,0.333596
662,0.316759
664,0.300797
666,0.285119
668,0.270182
670,0.255586
672,0.241666
674,0.228089
676,0.216097
678,0.204106
680,0.1936
682,0.183454
684,0.173309
686,0.165591
688,0.157874
690,0.150156
692,0.143595
694,0.137982
696,0.132369
698,0.126756
700,0.121607
702,0.117966
704,0.114324
706,0.110683
708,0.107041
710,0.104013
712,0.101624
714,0.0992354
716,0.0968465
718,0.0944575
720,0.0925346
722,0.0907719
724,0.0890092
726,0.0872464
728,0.0854837
730,0.0844391
732,0.0833954
734,0.0823516
736,0.0813079
738,0.080364
740,0.0797146
742,0.0790652
744,0.0784158
746,0.0777663
748,0.0771875
750,0.0766773
752,0.076167
754,0.0756568
756,0.0751465
758,0.0747069
760,0.0742894
762,0.073872
764,0.0734545
766,0.0730385
768,0.0727138
770,0.0723891
772,0.0720644
774,0.0717397
776,0.0713772
778,0.0709134
780,0.0704495
782,0.0699856
784,0.0695217
786,0.0692651
788,0.0691955
789,0.0691607