File: conjugated_ECPs/uv_vis_automated/Chem. Mater.,31, 17, 6841-6849, 2019/metadata/xyz131.csv
Wavelength (nm),Absorbance
330,0.227549
332,0.224047
334,0.220619
336,0.217604
338,0.214589
340,0.211574
342,0.208559
344,0.206453
346,0.205665
348,0.204876
350,0.204087
352,0.203299
354,0.204402
356,0.206466
358,0.20853
360,0.210595
362,0.212659
364,0.215766
366,0.218967
368,0.222167
370,0.225368
372,0.228709
374,0.232721
376,0.236734
378,0.240746
380,0.244759
382,0.249635
384,0.255674
386,0.261712
388,0.26775
390,0.273789
392,0.279827
394,0.285199
396,0.290528
398,0.295857
400,0.301745
402,0.308596
404,0.315447
406,0.322298
408,0.329755
410,0.337473
412,0.345191
414,0.353073
416,0.361452
418,0.369832
420,0.378219
422,0.387211
424,0.396203
426,0.405195
428,0.414517
430,0.423841
432,0.433318
434,0.443452
436,0.453587
438,0.463908
440,0.474355
442,0.484808
444,0.495878
446,0.506948
448,0.518293
450,0.530012
452,0.541617
454,0.551098
456,0.560579
458,0.571162
460,0.583304
462,0.595478
464,0.608107
466,0.620736
468,0.63224
470,0.643663
472,0.656624
474,0.670032
476,0.682439
478,0.694288
480,0.706057
482,0.717513
484,0.728969
486,0.740777
488,0.75285
490,0.765168
492,0.778105
494,0.791042
496,0.804041
498,0.817039
500,0.827561
502,0.838008
504,0.848132
506,0.857733
508,0.867335
510,0.876346
512,0.884926
514,0.893506
516,0.901866
518,0.909803
520,0.91774
522,0.925677
524,0.932898
526,0.940031
528,0.947164
530,0.954287
532,0.960118
534,0.96595
536,0.971781
538,0.977613
540,0.982187
542,0.985388
544,0.988588
546,0.991789
548,0.99499
550,0.995897
552,0.995967
554,0.996036
556,0.996106
558,0.996175
560,0.994665
562,0.993135
564,0.991604
566,0.990073
568,0.988128
570,0.984881
572,0.981634
574,0.978387
576,0.975139
578,0.97101
580,0.965984
582,0.960958
584,0.955932
586,0.950357
588,0.942312
590,0.934267
592,0.926221
594,0.915601
596,0.904835
598,0.892646
600,0.8794
602,0.864117
604,0.845979
606,0.82864
608,0.811741
610,0.795731
612,0.779344
614,0.762506
616,0.745539
618,0.728529
620,0.712655
622,0.697061
624,0.682195
626,0.667534
628,0.65297
630,0.638672
632,0.625592
634,0.612513
636,0.599918
638,0.587416
640,0.574501
642,0.561283
644,0.547566
646,0.532916
648,0.51824
650,0.503525
652,0.488261
654,0.472152
656,0.457251
658,0.443089
660,0.428383
662,0.413251
664,0.398432
666,0.383882
668,0.372189
670,0.360495
672,0.348942
674,0.337546
676,0.326252
678,0.315884
680,0.305516
682,0.295887
684,0.286966
686,0.278046
688,0.270083
690,0.263113
692,0.256144
694,0.249175
696,0.243409
698,0.238418
700,0.233427
702,0.228436
704,0.223533
706,0.219659
708,0.215786
710,0.211912
712,0.208039
714,0.204521
716,0.201714
718,0.198908
720,0.196101
722,0.193295
724,0.190815
726,0.188566
728,0.186316
730,0.184066
732,0.181816
734,0.179879
736,0.178
738,0.176121
740,0.174243
742,0.172386
744,0.170739
746,0.169093
748,0.167446
750,0.165799
752,0.164226
754,0.162788
756,0.16135
758,0.159912
760,0.158474
762,0.157078
764,0.155709
766,0.154341
768,0.152972
770,0.151604
772,0.150335
774,0.149083
776,0.14783
778,0.146578
780,0.145336
782,0.144176
784,0.143016
786,0.141857
788,0.140697
789,0.140117