File: conjugated_ECPs/uv_vis_automated/Chem. Mater.,31, 17, 6841-6849, 2019/metadata/xyz212.csv
Wavelength (nm),Absorbance
310,0.302281
312,0.30184
314,0.301197
316,0.298112
318,0.295027
320,0.291942
322,0.288858
324,0.285542
326,0.281762
328,0.277981
330,0.274201
332,0.27042
334,0.267481
336,0.265139
338,0.262796
340,0.260454
342,0.258111
344,0.258048
346,0.258419
348,0.25879
350,0.259161
352,0.259872
354,0.263838
356,0.267805
358,0.271771
360,0.275737
362,0.280565
364,0.287003
366,0.293441
368,0.299879
370,0.306365
372,0.3142
374,0.322035
376,0.329869
378,0.338112
380,0.346646
382,0.35518
384,0.364134
386,0.373412
388,0.382691
390,0.392379
392,0.402413
394,0.412446
396,0.422958
398,0.433638
400,0.444436
402,0.455895
404,0.467355
406,0.478913
408,0.490547
410,0.502317
412,0.514665
414,0.527028
416,0.539825
418,0.552623
420,0.565715
422,0.578849
424,0.592145
426,0.605504
428,0.618925
430,0.632396
432,0.645777
434,0.659023
436,0.672353
438,0.685936
440,0.699519
442,0.713102
444,0.726686
446,0.739955
448,0.753201
450,0.765925
452,0.778498
454,0.790931
456,0.80328
458,0.815448
460,0.827063
462,0.838679
464,0.849833
466,0.860747
468,0.871612
470,0.881824
472,0.892037
474,0.901846
476,0.911222
478,0.920597
480,0.928945
482,0.936802
484,0.944659
486,0.952025
488,0.957709
490,0.963393
492,0.969077
494,0.97476
496,0.978715
498,0.982501
500,0.986287
502,0.990074
504,0.99386
506,0.994619
508,0.995335
510,0.996052
512,0.996768
514,0.997358
516,0.99658
518,0.995802
520,0.995025
522,0.993956
524,0.990443
526,0.98693
528,0.983416
530,0.979903
532,0.97639
534,0.972877
536,0.967756
538,0.961713
540,0.955669
542,0.949625
544,0.942604
546,0.934739
548,0.926875
550,0.918722
552,0.909902
554,0.901082
556,0.892165
558,0.883001
560,0.873837
562,0.86451
564,0.854724
566,0.844937
568,0.835098
570,0.825198
572,0.815297
574,0.804349
576,0.793242
578,0.781408
580,0.768836
582,0.756138
584,0.743197
586,0.729637
588,0.715137
590,0.700352
592,0.685228
594,0.669854
596,0.654243
598,0.638909
600,0.623693
602,0.609135
604,0.59486
606,0.581139
608,0.567902
610,0.555401
612,0.542937
614,0.532023
616,0.521109
618,0.510672
620,0.500855
622,0.491037
624,0.481343
626,0.471721
628,0.462099
630,0.451779
632,0.441016
634,0.430253
636,0.418416
638,0.406323
640,0.393632
642,0.380161
644,0.366353
646,0.351666
648,0.33655
650,0.320589
652,0.304841
654,0.28923
656,0.274085
658,0.259043
660,0.244232
662,0.229833
664,0.216924
666,0.204111
668,0.1928
670,0.181489
672,0.171764
674,0.16276
676,0.153756
678,0.146495
680,0.140099
682,0.133704
684,0.127309
686,0.122099
688,0.117785
690,0.113471
692,0.109157
694,0.104843
696,0.101847
698,0.0991336
700,0.0964199
702,0.0937062
704,0.091067
706,0.0893042
708,0.0875415
710,0.0857788
712,0.0840161
714,0.0824308
716,0.0812016
718,0.0799723
720,0.078743
722,0.0775138
724,0.0766658
726,0.076086
728,0.0755061
730,0.0749263
732,0.0743465
734,0.0737861
736,0.0732295
738,0.0726728
740,0.0721162
742,0.0715751
744,0.0711808
746,0.0707865
748,0.0703922
749,0.0701951