File: conjugated_ECPs/uv_vis_automated/Chem. Mater.,31, 17, 6841-6849, 2019/metadata/xyz221.txt
Wavelength (nm),Absorbance
320,0.322
322,0.319255
324,0.31651
326,0.313765
328,0.31039
330,0.306948
332,0.303505
334,0.300062
336,0.296767
338,0.294115
340,0.291463
342,0.288811
344,0.286159
346,0.284559
348,0.28414
350,0.283722
352,0.283303
354,0.282884
356,0.286726
358,0.291949
360,0.297173
362,0.302396
364,0.30911
366,0.315996
368,0.322882
370,0.330191
372,0.337982
374,0.345772
376,0.353609
378,0.362641
380,0.371673
382,0.38091
384,0.390762
386,0.400614
388,0.410995
390,0.421629
392,0.432312
394,0.443415
396,0.454517
398,0.465885
400,0.477485
402,0.489184
404,0.501343
406,0.513518
408,0.526128
410,0.538738
412,0.551548
414,0.564383
416,0.577302
418,0.59025
420,0.603333
422,0.616506
424,0.629782
426,0.64318
428,0.656614
430,0.670125
432,0.68361
434,0.69697
436,0.710327
438,0.723537
440,0.736748
442,0.749528
444,0.76225
446,0.775056
448,0.787891
450,0.800324
452,0.812483
454,0.824337
456,0.835822
458,0.847168
460,0.858205
462,0.869242
464,0.879077
466,0.888851
468,0.89839
470,0.907546
472,0.916702
474,0.925082
476,0.932929
478,0.940776
480,0.948379
482,0.954728
484,0.961077
486,0.967425
488,0.973774
490,0.978427
492,0.982838
494,0.987248
496,0.991659
498,0.995412
500,0.99754
502,0.999668
504,1.0018
506,1.00299
508,1.00243
510,1.00187
512,1.0013
514,1.00042
516,0.996669
518,0.992916
520,0.98864
522,0.983938
524,0.979236
526,0.974534
528,0.969832
530,0.964944
532,0.957985
534,0.951027
536,0.944068
538,0.936586
540,0.92729
542,0.917994
544,0.908697
546,0.899401
548,0.889082
550,0.878369
552,0.867657
554,0.856034
556,0.844349
558,0.832194
560,0.819697
562,0.806955
564,0.793894
566,0.780801
568,0.767628
570,0.754329
572,0.740292
574,0.726256
576,0.712145
578,0.698033
580,0.682771
582,0.667322
584,0.651679
586,0.635946
588,0.619937
590,0.603664
592,0.587128
594,0.571006
596,0.554972
598,0.538611
600,0.522501
602,0.506844
604,0.49145
606,0.476204
608,0.461938
610,0.447749
612,0.434349
614,0.420951
616,0.407937
618,0.394989
620,0.382361
622,0.369864
624,0.35771
626,0.34582
628,0.333873
630,0.32171
632,0.309547
634,0.297291
636,0.285019
638,0.272944
640,0.260952
642,0.249078
644,0.237427
646,0.225775
648,0.214535
650,0.203299
652,0.192867
654,0.1829
656,0.172933
658,0.164624
660,0.156615
662,0.148607
664,0.1415
666,0.135658
668,0.129815
670,0.123972
672,0.118398
674,0.11463
676,0.110861
678,0.107093
680,0.103324
682,0.100171
684,0.0978916
686,0.0956118
688,0.0933321
690,0.0910524
692,0.0894381
694,0.0881122
696,0.0867862
698,0.0854603
700,0.0841343
702,0.0833108
704,0.0824966
706,0.0816824
708,0.0808683
710,0.0801654
712,0.0797699
714,0.0793745
716,0.078979
718,0.0785836
720,0.0782393
722,0.0779369
724,0.0776345
726,0.077332
728,0.0770296
730,0.0769601
732,0.0769368
734,0.0769135
736,0.0768903
738,0.0768917
740,0.0770778
742,0.0772639
744,0.07745
746,0.0776361
748,0.0777791
749,0.0778184