File: conjugated_ECPs/uv_vis_automated/Chem. Mater.,31, 17, 6841-6849, 2019/metadata/xyz211.csv
Wavelength (nm),Absorbance
330,0.3865
332,0.385013
334,0.386899
336,0.388786
338,0.390672
340,0.392559
342,0.395457
344,0.400609
346,0.40576
348,0.410911
350,0.416063
352,0.424006
354,0.431987
356,0.439968
358,0.448887
360,0.458645
362,0.468403
364,0.479186
366,0.490371
368,0.501766
370,0.513569
372,0.52559
374,0.538618
376,0.551651
378,0.565013
380,0.578375
382,0.592212
384,0.606131
386,0.620285
388,0.634544
390,0.649329
392,0.664294
394,0.679431
396,0.694517
398,0.709479
400,0.724539
402,0.739676
404,0.754379
406,0.769011
408,0.7838
410,0.798426
412,0.812778
414,0.826898
416,0.840705
418,0.854278
420,0.867195
422,0.880006
424,0.891883
426,0.90376
428,0.914429
430,0.924636
432,0.934645
434,0.943328
436,0.95201
438,0.960403
440,0.966277
442,0.972151
444,0.978025
446,0.983898
448,0.986237
450,0.988561
452,0.990884
454,0.993208
456,0.994582
458,0.992949
460,0.991316
462,0.989682
464,0.988049
466,0.984789
468,0.979795
470,0.974801
472,0.969807
474,0.964375
476,0.956654
478,0.948932
480,0.941211
482,0.932003
484,0.922163
486,0.912323
488,0.90199
490,0.891598
492,0.878632
494,0.864714
496,0.851902
498,0.839932
500,0.827095
502,0.812991
504,0.798986
506,0.785099
508,0.771391
510,0.757854
512,0.743064
514,0.727327
516,0.712243
518,0.698108
520,0.683944
522,0.669747
524,0.655636
526,0.641606
528,0.627814
530,0.614452
532,0.601111
534,0.587861
536,0.574652
538,0.562738
540,0.550824
542,0.539484
544,0.528231
546,0.517189
548,0.506363
550,0.495537
552,0.485337
554,0.475207
556,0.465273
558,0.45579
560,0.446307
562,0.437203
564,0.428487
566,0.419771
568,0.411311
570,0.403612
572,0.395913
574,0.388214
576,0.381245
578,0.374468
580,0.367691
582,0.361034
584,0.355286
586,0.349539
588,0.343791
590,0.338044
592,0.332648
594,0.327343
596,0.322038
598,0.316733
600,0.311193
602,0.304957
604,0.298722
606,0.292486
608,0.286251
610,0.27944
612,0.272587
614,0.265733
616,0.25888
618,0.25184
620,0.244761
622,0.237681
624,0.230601
626,0.223942
628,0.217313
630,0.210684
632,0.204055
634,0.198667
636,0.193543
638,0.188419
640,0.183295
642,0.178549
644,0.174753
646,0.170957
648,0.167161
650,0.163365
652,0.160299
654,0.157884
656,0.155468
658,0.153052
660,0.150637
662,0.148879
664,0.147315
666,0.14575
668,0.144186
670,0.142632
672,0.141689
674,0.140746
676,0.139802
678,0.138859
680,0.137957
682,0.137173
684,0.136388
686,0.135604
688,0.134819
690,0.134454
692,0.134117
694,0.133779
696,0.133442
698,0.133104
700,0.132767
702,0.132562
704,0.132516
706,0.13247
708,0.132423
710,0.132377
712,0.132364
714,0.132364
716,0.132364
718,0.132364
720,0.132364
722,0.13219
724,0.132006
726,0.131822
728,0.131638
730,0.131522
732,0.131706
734,0.13189
736,0.132074
738,0.132258
740,0.132285
742,0.132102
744,0.131919
746,0.131736
748,0.13169
750,0.131937
752,0.132183
754,0.132429
756,0.132675
758,0.132921
760,0.133167
762,0.133413
764,0.133659
766,0.133905
768,0.133977
770,0.133931
772,0.133885
774,0.133839
776,0.133793
778,0.133998
780,0.134251
782,0.134504
784,0.134757
786,0.135001
788,0.135138
789,0.135207