File: conjugated_ECPs/uv_vis_automated/Adv. Mater., 22, 4949-4953, 2010/metadata/ECP-3.txt
Wavelength (nm)	Absorbance
360	0.357919
362	0.362645
364	0.368275
366	0.373905
368	0.379535
370	0.38573
372	0.392266
374	0.398802
376	0.405337
378	0.412044
380	0.41876
382	0.425476
384	0.433646
386	0.443561
388	0.453475
390	0.461801
392	0.47004
394	0.478279
396	0.489715
398	0.502146
400	0.513579
402	0.524308
404	0.535037
406	0.550576
408	0.564267
410	0.57458
412	0.584894
414	0.596862
416	0.609331
418	0.622655
420	0.636354
422	0.648541
424	0.65959
426	0.67064
428	0.684932
430	0.698483
432	0.710501
434	0.722519
436	0.7345368
438	0.746443
440	0.757833
442	0.769245
444	0.780904
446	0.792563
448	0.803319
450	0.814057
452	0.824192
454	0.834078
456	0.843787
458	0.85161
460	0.859434
462	0.867257
464	0.875655
466	0.884116
468	0.892546
470	0.900795
472	0.909045
474	0.917294
476	0.923093
478	0.92835
480	0.933607
482	0.938863
484	0.94246
486	0.946009
488	0.949558
490	0.952936
492	0.955124
494	0.957312
496	0.9595
498	0.961634
500	0.963628
502	0.965623
504	0.967655
506	0.969941
508	0.972228
510	0.974514
512	0.975785
514	0.975785
516	0.975785
518	0.975785
520	0.976125
522	0.976737
524	0.977349
526	0.977961
528	0.978426
530	0.978426
532	0.978426
534	0.978426
536	0.978299
538	0.977979
540	0.977659
542	0.977339
544	0.977077
546	0.976864
548	0.97665
550	0.976437
552	0.977025
554	0.977954
556	0.979893
558	0.982497
560	0.985101
562	0.987504
564	0.989656
566	0.991809
568	0.994081
570	0.997309
572	1.00054
574	1.00377
576	1.00448
578	1.00448
580	1.00448
582	1.00448
584	1.00182
586	0.998826
588	0.995831
590	0.992835
592	0.98984
594	0.986773
596	0.983677
598	0.980582
600	0.977487
602	0.974019
604	0.970497
606	0.966975
608	0.963426
610	0.958863
612	0.9543
614	0.949737
616	0.944926
618	0.938976
620	0.933025
622	0.927075
624	0.920636
626	0.913213
628	0.90579
630	0.898347
632	0.888953
634	0.879559
636	0.86967
638	0.858995
640	0.848321
642	0.836528
644	0.824664
646	0.811976
648	0.798435
650	0.784566
652	0.77019
654	0.75488
656	0.739229
658	0.723908
660	0.708401
662	0.692423
664	0.676467
666	0.660934
668	0.6454
670	0.61704
672	0.601973
674	0.579013
676	0.557848
678	0.519462
680	0.502242
682	0.489327
684	0.46565
686	0.452735
688	0.438386
690	0.398206
692	0.378834
694	0.359462
696	0.343907
698	0.329442
700	0.314778
702	0.295288
704	0.276173
706	0.2599
708	0.243401
710	0.226514
712	0.211227
714	0.197941
716	0.1845645
718	0.171106
720	0.15969
722	0.149511
724	0.139947
726	0.131294
728	0.122641
730	0.113994
732	0.107774
734	0.101554
736	0.0953347
738	0.0899008
740	0.0860584
742	0.082216
744	0.0783736
746	0.0750655
748	0.0723275
750	0.06958938
752	0.0668513
754	0.0643344
756	0.0620463
758	0.0597583
760	0.0574702
762	0.05681495
764	0.0565926
766	0.0563702
768	0.0561479
770	0.0560934
772	0.0560489
774	0.0560044
776	0.05594357
778	0.0557301
780	0.0555166
782	0.0553032
784	0.0552633
786	0.0557436
788	0.0562239
790	0.0567042
792	0.0569692
794	0.0569158
796	0.0568624
798	0.0568091
799	0.0568036