File: conjugated_ECPs/uv_vis_automated/Adv. Mater., 22, 4949-4953, 2010/metadata/ECP-2.txt
Wavelength (nm)	Absorbance
360	0.357919
362	0.362645
364	0.368275
366	0.373905
368	0.379535
370	0.38573
372	0.392266
374	0.398802
376	0.405337
378	0.412044
380	0.41876
382	0.425476
384	0.433646
386	0.443561
388	0.453475
390	0.461801
392	0.47004
394	0.478279
396	0.489715
398	0.502146
400	0.513123
402	0.523075
404	0.533027
406	0.546001
408	0.559666
410	0.570358
412	0.580588
414	0.591252
416	0.602214
418	0.613567
420	0.62532
422	0.629218
424	0.63044
426	0.633973
428	0.645596
430	0.65722
432	0.667982
434	0.677668
436	0.687354
438	0.696801
440	0.704335
442	0.711868
444	0.719402
446	0.729447
448	0.740209
450	0.750972
452	0.758744
454	0.76278
456	0.766816
458	0.770852
460	0.774888
462	0.779193
464	0.783498
466	0.787803
468	0.792108
470	0.796413
472	0.800717
474	0.803587
476	0.803587
478	0.804018
480	0.807892
482	0.811767
484	0.815067
486	0.81722
488	0.819372
490	0.821525
492	0.821525
494	0.821525
496	0.821525
498	0.821525
500	0.821525
502	0.821525
504	0.821525
506	0.822242
508	0.825471
510	0.8287
512	0.829507
514	0.830314
516	0.831121
518	0.831928
520	0.834081
522	0.837309
524	0.840538
526	0.843528
528	0.84568
530	0.847833
532	0.849985
534	0.851659
536	0.853274
538	0.854888
540	0.856502
542	0.867444
544	0.882511
546	0.882511
548	0.882511
550	0.882511
552	0.88574
554	0.888969
556	0.892197
558	0.900448
560	0.911211
562	0.915823
564	0.920436
566	0.925048
568	0.929865
570	0.936323
572	0.94278
574	0.948592
576	0.953112
578	0.957632
580	0.962152
582	0.966673
584	0.971193
586	0.977937
588	0.985317
590	0.992697
592	1.00008
594	0.987024
596	0.984278
598	0.981532
600	0.985408
602	0.999348
604	1.0009
606	1.0009
608	1.0009
610	0.998847
612	0.995157
614	0.991467
616	0.987777
618	0.984395
620	0.981166
622	0.977937
624	0.974709
626	0.97148
628	0.967892
630	0.961435
632	0.954978
634	0.94852
636	0.940389
638	0.932018
640	0.920777
642	0.90571
644	0.896861
646	0.888789
648	0.855964
650	0.843049
652	0.830135
654	0.8
656	0.789238
658	0.76843
660	0.749776
662	0.734948
664	0.717728
666	0.688295
668	0.655372
670	0.670852
672	0.643408
674	0.615964
676	0.588341
678	0.586009
680	0.565022
682	0.544036
684	0.500448
686	0.484305
688	0.466009
690	0.430493
692	0.420161
694	0.40983
696	0.369507
698	0.338188
700	0.314778
702	0.295288
704	0.276173
706	0.2599
708	0.243401
710	0.226514
712	0.211227
714	0.197941
716	0.185767
718	0.174615
720	0.163627
722	0.153134
724	0.142641
726	0.133019
728	0.123616
730	0.11422
732	0.107938
734	0.101657
736	0.0953758
738	0.0899008
740	0.0860584
742	0.082216
744	0.0783736
746	0.07511218
748	0.0724705
750	0.0698289
752	0.0671872
754	0.06469854
756	0.062297
758	0.0598955
760	0.057494
762	0.05681495
764	0.0565926
766	0.0563702
768	0.0561479
770	0.0560934
772	0.0560489
774	0.0560044
776	0.05594357
778	0.0557301
780	0.0555166
782	0.0553032
784	0.0552633
786	0.0557436
788	0.0562239
790	0.0567042
792	0.0569692
794	0.0569158
796	0.0568624
798	0.0568091
799	0.0567991