File: conjugated_ECPs/uv_vis_automated/Adv. Mater., 22, 4949-4953, 2010/metadata/ECP-5.txt
Wavelength (nm)	Absorbance
360	0.300041
362	0.301215
364	0.307085
366	0.313543
368	0.32
370	0.326457
372	0.335785
374	0.346009
376	0.350852
378	0.355874
380	0.362332
382	0.368789
384	0.375247
386	0.381704
388	0.390744
390	0.401076
392	0.411408
394	0.422123
396	0.432543
398	0.441768
400	0.450993
402	0.460218
404	0.471211
406	0.48574
408	0.499659
410	0.5087
412	0.51774
414	0.533453
416	0.559211
418	0.573417
420	0.587623
422	0.600538
424	0.611839
426	0.623211
428	0.634834
430	0.646457
432	0.660568
434	0.677788
436	0.691659
438	0.704574
440	0.717489
442	0.730404
444	0.743318
446	0.7713
448	0.789058
450	0.799552
452	0.810045
454	0.820538
456	0.830673
458	0.839552
460	0.84843
462	0.857309
464	0.866188
466	0.875974
468	0.886019
470	0.896064
472	0.906109
474	0.916153
476	0.931444
478	0.948233
480	0.965022
482	0.97517
484	0.985317
486	0.995464
488	1.00529
490	1.01256
492	1.01982
494	1.02709
496	1.03435
498	1.04046
500	1.046
502	1.05153
504	1.05707
506	1.0603
508	1.06289
510	1.06547
512	1.06805
514	1.07064
516	1.07296
518	1.0744
520	1.07583
522	1.07727
524	1.0787
526	1.07946
528	1.07785
530	1.07623
532	1.07462
534	1.073
536	1.07064
538	1.06805
540	1.06547
542	1.06289
544	1.0603
546	1.05654
548	1.04865
550	1.04076
552	1.03286
554	1.02497
556	1.01781
558	1.0132
560	1.00858
562	1.00397
564	0.999605
566	0.995731
568	0.991857
570	0.987982
572	0.984108
574	0.980233
576	0.971001
578	0.960239
580	0.949477
582	0.932018
584	0.91157
586	0.901883
588	0.893991
590	0.900448
592	0.890117
594	0.879785
596	0.870601
598	0.865435
600	0.860269
602	0.849937
604	0.833148
606	0.816359
608	0.805381
610	0.797309
612	0.785172
614	0.767952
616	0.760359
618	0.755516
620	0.750673
622	0.74583
624	0.739641
626	0.730762
628	0.721883
630	0.713004
632	0.704126
634	0.685919
636	0.675336
638	0.667265
640	0.652915
642	0.637848
644	0.628161
646	0.618117
648	0.606816
650	0.595516
652	0.576143
654	0.5567713
656	0.534888
658	0.520179
660	0.509417
662	0.501668
664	0.493919
666	0.484066
668	0.466846
670	0.447235
672	0.42571
674	0.411839
676	0.378595
678	0.371061
680	0.363528
682	0.355994
684	0.349417
686	0.34296
688	0.297758
690	0.286996
692	0.276233
694	0.266547
696	0.259013
698	0.25148
700	0.243946
702	0.221991
704	0.200036
706	0.196592
708	0.164425
710	0.159043
712	0.153662
714	0.148281
716	0.142691
718	0.13704
720	0.13139
722	0.12574
724	0.114798
726	0.0932735
728	0.0827504
730	0.077728
732	0.0727055
734	0.0676831
736	0.0626607
738	0.0566816
740	0.0502242
742	0.0437668
744	0.0386547
746	0.0362332
748	0.0338117
750	0.0313901
752	0.02896861
754	0.0272646
756	0.0256502
758	0.0240359
760	0.0224215
762	0.0243946
764	0.0237875
766	0.0222973
768	0.0208072
770	0.019317
772	0.0178268
774	0.0163367
776	0.0148465
778	0.0139193
780	0.0132735
782	0.0126278
784	0.0119821
786	0.0113363
788	0.0107623
790	0.0107623
792	0.0107623
794	0.01058296
796	0.0100448
798	0.009506726
799	0.009237668