File: conjugated_ECPs/uv_vis_automated/Adv. Mater., 22, 4949-4953, 2010/metadata/ECP-4.txt
Wavelength (nm)	Absorbance
428	0.291209
429	0.296703
430	0.302198
431	0.302198
432	0.307692
433	0.313187
434	0.318681
435	0.324176
436	0.32967
437	0.32967
438	0.335165
439	0.340659
440	0.346154
441	0.357143
442	0.362637
443	0.368132
444	0.373626
445	0.379121
446	0.384615
447	0.39011
448	0.401099
449	0.406593
450	0.417582
451	0.423077
452	0.434066
453	0.43956
454	0.456044
455	0.461538
456	0.472527
457	0.478022
458	0.489011
459	0.5
460	0.510989
461	0.521978
462	0.532967
463	0.538462
464	0.554945
465	0.56044
466	0.576923
467	0.582418
468	0.593407
469	0.604396
470	0.615385
471	0.620879
472	0.631868
473	0.642857
474	0.637363
475	0.659341
476	0.660911
477	0.673469
478	0.686028
479	0.698587
480	0.711146
481	0.723705
482	0.736264
483	0.747253
484	0.752747
485	0.771978
486	0.802198
487	0.807692
488	0.807692
489	0.802198
490	0.813187
491	0.818681
492	0.824176
493	0.835165
494	0.846154
495	0.851648
496	0.857143
497	0.868132
498	0.873626
499	0.879121
500	0.89011
501	0.895604
502	0.901099
503	0.906593
504	0.912088
505	0.917582
506	0.923077
507	0.923077
508	0.928571
509	0.934066
510	0.934066
511	0.93956
512	0.93956
513	0.93956
514	0.945055
515	0.945055
516	0.947802
517	0.950549
518	0.956044
519	0.961538
520	0.967033
521	0.967033
522	0.967033
523	0.972527
524	0.972527
525	0.972527
526	0.972894
527	0.97326
528	0.973626
529	0.973993
530	0.974359
531	0.974725
532	0.975092
533	0.975458
534	0.975824
535	0.97619
536	0.976557
537	0.976923
538	0.977289
539	0.977656
540	0.978022
541	0.978022
542	0.978022
543	0.978022
544	0.978022
545	0.978022
546	0.978022
547	0.978022
548	0.983516
549	0.983516
550	0.983516
551	0.994505
552	1
553	0.994505
554	0.994505
555	0.989011
556	0.994505
557	0.994505
558	0.994505
559	0.989011
560	0.989011
561	0.989011
562	0.989011
563	0.989011
564	0.978022
565	0.972527
566	0.967033
567	0.964286
568	0.961538
569	0.961538
570	0.961538
571	0.956044
572	0.950549
573	0.945055
574	0.93956
575	0.93956
576	0.934066
577	0.928571
578	0.923077
579	0.917582
580	0.912088
581	0.912088
582	0.906593
583	0.901099
584	0.895604
585	0.89011
586	0.89011
587	0.884615
588	0.873626
589	0.862637
590	0.857143
591	0.851648
592	0.835165
593	0.835165
594	0.818681
595	0.813187
596	0.802198
597	0.784493
598	0.772283
599	0.760073
600	0.747863
601	0.735653
602	0.723443
603	0.711233
604	0.699023
605	0.686813
606	0.681319
607	0.675824
608	0.653846
609	0.631868
610	0.620879
611	0.60989
612	0.598901
613	0.582418
614	0.549451
615	0.549451
616	0.516484
617	0.516484
618	0.5
619	0.472527
620	0.445055
621	0.428571
622	0.412088
623	0.395604
624	0.373626
625	0.347985
626	0.327839
627	0.307692
628	0.287546
629	0.267399
630	0.247253
631	0.227106
632	0.20696
633	0.186813
634	0.186813
635	0.181319
636	0.186813
637	0.153846
638	0.148352
639	0.142857
640	0.142857
641	0.131868
642	0.126374
643	0.115385
644	0.10989
645	0.104396
646	0.0934066
647	0.0879121
648	0.0769231
649	0.0659341
650	0.0659341
651	0.0549451
652	0.0494505
653	0.0494505
654	0.043956
655	0.043956
656	0.0384615
657	0.032967
658	0.0274725
659	0.0274725
660	0.021978
661	0.021978
662	0.021978
663	0.0164835
664	0.0164835
665	0.010989
666	0.010989
667	0.010989
668	0.005494505
669	0.005494505
670	0.005494505
671	0.005494505
672	0.005494505
673	0.002747253
674	0.005494505
675	0.005494505
676	0
677	0
678	0
679	0
680	0
681	0
682	0
683	0
684	0
685	0
686	0
687	0
688	0
689	0
690	0
691	0
692	0
693	0
694	0
695	0
696	0
697	0
698	0
699	0
700	0
701	0
702	0
703	0
704	0
705	0
706	0
707	0
708	0
709	0
710	0
711	0
712	0
713	0
714	0