File: conjugated_ECPs/uv_vis_automated/Adv. Mater., 22, 4949-4953, 2010/metadata/ECP-1.txt
Wavelength (nm)	Absorbance
360	0.401794
362	0.406099
364	0.411121
366	0.417578
368	0.424036
370	0.428956
372	0.432646
374	0.436336
376	0.440026
378	0.446637
380	0.454709
382	0.460732
384	0.464194
386	0.467656
388	0.471119
390	0.479902
392	0.4914595
394	0.503017
396	0.514575
398	0.524752
400	0.534137
402	0.543522
404	0.552907
406	0.559714
408	0.565984
410	0.572255
412	0.584589
414	0.598287
416	0.609712
418	0.620427
420	0.630936
422	0.641188
424	0.651987
426	0.663288
428	0.674588
430	0.678045
432	0.680621
434	0.683198
436	0.685202
438	0.685202
440	0.685202
442	0.685202
444	0.685202
446	0.685776
448	0.688359
450	0.690942
452	0.693525
454	0.696108
456	0.698691
458	0.699552
460	0.699552
462	0.699552
464	0.699552
466	0.699312
468	0.698236
470	0.69716
472	0.696084
474	0.694399
476	0.692638
478	0.690876
480	0.689115
482	0.687354
484	0.685593
486	0.685202
488	0.685202
490	0.685202
492	0.685202
494	0.685202
496	0.685202
498	0.685202
500	0.685202
502	0.685521
504	0.686238
506	0.686956
508	0.687673
510	0.688391
512	0.693812
514	0.705112
516	0.700508
518	0.704813
520	0.709118
522	0.713423
524	0.720789
526	0.728538
528	0.736143
530	0.742601
532	0.749058
534	0.755516
536	0.759964
538	0.763839
540	0.767713
542	0.773094
544	0.778475
546	0.783857
548	0.79713
550	0.81435
552	0.819193
554	0.824036
556	0.832143
558	0.841184
560	0.850224
562	0.857973
564	0.865722
566	0.8767713
568	0.897668
570	0.904933
572	0.912197
574	0.919462
576	0.926726
578	0.934888
580	0.943498
582	0.952108
584	0.960717
586	0.969327
588	0.975272
590	0.979885
592	0.984497
594	0.98911
596	0.99139
598	0.993004
600	0.994619
602	0.996233
604	0.997309
606	0.997309
608	0.997309
610	0.997309
612	0.997309
614	0.997309
616	0.993961
618	0.989656
620	0.985351
622	0.981046
624	0.976741
626	0.969925
628	0.962392
630	0.954858
632	0.943019
634	0.9258
636	0.914439
638	0.904753
640	0.893274
642	0.880359
644	0.867444
646	0.854529
648	0.841614
650	0.8287
652	0.804305
654	0.792825
656	0.784753
658	0.755874
660	0.746188
662	0.734888
664	0.723587
666	0.673483
668	0.657524
670	0.63497
672	0.618833
674	0.597907
676	0.57722
678	0.559462
680	0.541704
682	0.524484
684	0.485022
686	0.447952
688	0.382242
690	0.367713
692	0.353184
694	0.343252
696	0.333894
698	0.324537
700	0.314778
702	0.295288
704	0.276173
706	0.2599
708	0.243401
710	0.226514
712	0.211227
714	0.197941
716	0.1845645
718	0.171106
720	0.15969
722	0.149511
724	0.14008
726	0.13176
728	0.123439
730	0.115125
732	0.10966
734	0.104195
736	0.0987299
738	0.0936954
740	0.0895328
742	0.0853702
744	0.0812076
746	0.0774108
748	0.0740043
750	0.0705978
752	0.0671913
754	0.06437528
756	0.0621704
758	0.0599656
760	0.0577607
762	0.0570596
764	0.0567572
766	0.0564548
768	0.05615237
770	0.0560934
772	0.0560489
774	0.0560044
776	0.05594357
778	0.0557301
780	0.0555166
782	0.0553032
784	0.0552633
786	0.0557436
788	0.0562239
790	0.0567042
792	0.0569692
794	0.0569158
796	0.0568624
798	0.0568091
799	0.0568036