File: conjugated_ECPs/uv_vis_automated/ACS Macro Lett., 5, 714-717, 2016/metadata/PProDOT.txt
Wavelength (nm)	Absorbance
390	0.158283
392	0.161401
394	0.164518
396	0.168266
398	0.172246
400	0.176226
402	0.180206
404	0.184185
406	0.1887
408	0.193234
410	0.197769
412	0.202303
414	0.207015
416	0.211977
418	0.216939
420	0.221902
422	0.2273429
424	0.233238
426	0.239132
428	0.245055
430	0.251538
432	0.258021
434	0.264504
436	0.271559
438	0.27876
440	0.285961
442	0.293486
444	0.301111
446	0.308736
448	0.316904
450	0.325103
452	0.333729
454	0.3431605
456	0.352994
458	0.364657
460	0.3764
462	0.388408
464	0.400627
466	0.413387
468	0.426602
470	0.440195
472	0.452997
474	0.465619
476	0.478241
478	0.490814
480	0.503297
482	0.5156948
484	0.528039
486	0.540847
488	0.553718
490	0.569739
492	0.586619
494	0.605286
496	0.624841
498	0.644872
500	0.665774
502	0.690768
504	0.708751
506	0.725736
508	0.743798
510	0.759704
512	0.769258
514	0.778812
516	0.783156
518	0.787108
520	0.79106
522	0.79507
524	0.801016
526	0.806961
528	0.812906
530	0.823776
532	0.839991
534	0.861073
536	0.883259
538	0.905986
540	0.928433
542	0.948049
544	0.965781
546	0.977178
548	0.983351
550	0.989524
552	0.992062
554	0.985962
556	0.979863
558	0.97319
560	0.953981
562	0.929059
564	0.900802
566	0.873232
568	0.844244
570	0.815246
572	0.809533
574	0.804308
576	0.802073
578	0.811638
580	0.821203
582	0.833499
584	0.857443
586	0.8834
588	0.906979
590	0.925855
592	0.948679
594	0.96528
596	0.974932
598	0.980493
600	0.986053
602	0.977492
604	0.965673
606	0.951345
608	0.921307
610	0.865193
612	0.791521
614	0.720394
616	0.610518
618	0.539889
620	0.438352
622	0.341182
624	0.268011
626	0.22074
628	0.186471
630	0.155185
632	0.127405
634	0.11229
636	0.101093
638	0.0928127
640	0.0851336
642	0.0774546
644	0.0730996
646	0.0695982
648	0.0660969
650	0.0625955
652	0.0599836
654	0.0584063
656	0.0568291
658	0.0552518
660	0.0536745
662	0.0525182
664	0.0515462
666	0.0505742
668	0.0496021
670	0.0486301
672	0.0477773
674	0.0469337
676	0.04609
678	0.0452463
680	0.0444681
682	0.0440279
684	0.0435878
686	0.0431476
688	0.0427074
690	0.042173
692	0.0414944
694	0.0408158
696	0.0401372
698	0.0394586
700	0.038953
702	0.0385495
704	0.038146
706	0.0377425
708	0.03733903
710	0.0370462
712	0.0367711
714	0.036496
716	0.0362209
718	0.0359353
720	0.0355502
722	0.035165
724	0.0347799
726	0.0343947
728	0.0340638
730	0.0338437
732	0.0336236
734	0.0334035
736	0.0331835
738	0.0329428
740	0.032686
742	0.0324292
744	0.0321725
746	0.0319157
748	0.0316735
750	0.0314351
752	0.0311967
754	0.0309583
756	0.0307219
758	0.03055684
760	0.0303918
762	0.0302267
764	0.0300617
766	0.0299398
768	0.0299398
770	0.0299398
772	0.0299398
774	0.0299398
776	0.0299398
778	0.0299398
780	0.0299398
782	0.0299398
784	0.0299398
786	0.0299398
788	0.0299398
790	0.0299398
792	0.0299398
794	0.0299398
796	0.0300632
798	0.0301916
799	0.03025576