File: conjugated_ECPs/uv_vis_automated/ACS Macro Lett., 5, 714-717, 2016/metadata/ProDOT-EDOS.csv
Wavelength (nm),Absorbance
390,0.131522
392,0.133026
394,0.13453
396,0.136637
398,0.138966
400,0.141295
402,0.143624
404,0.145954
406,0.148636
408,0.151332
410,0.154029
412,0.156725
414,0.159489
416,0.162534
418,0.165578
420,0.168623
422,0.171667
424,0.174862
426,0.178255
428,0.181648
430,0.185041
432,0.188434
434,0.192155
436,0.196043
438,0.199931
440,0.20382
442,0.207708
444,0.212205
446,0.216771
448,0.221338
450,0.225905
452,0.230522
454,0.235478
456,0.240434
458,0.24539
460,0.250358
462,0.256183
464,0.262009
466,0.267834
468,0.273967
470,0.280355
472,0.286743
474,0.293319
476,0.300338
478,0.307358
480,0.31461
482,0.322512
484,0.330413
486,0.338714
488,0.34751
490,0.356337
492,0.365631
494,0.374925
496,0.384362
498,0.393868
500,0.403949
502,0.414576
504,0.425176
506,0.435754
508,0.447088
510,0.458899
512,0.469843
514,0.480348
516,0.492164
518,0.504508
520,0.516852
522,0.52947
524,0.542924
526,0.556117
528,0.569062
530,0.584165
532,0.598748
534,0.612756
536,0.62749
538,0.642467
540,0.657308
542,0.671839
544,0.68557
546,0.699225
548,0.712818
550,0.725846
552,0.73869
554,0.750895
556,0.762631
558,0.773481
560,0.784568
562,0.796019
564,0.807355
566,0.818303
568,0.829641
570,0.841985
572,0.854405
574,0.866888
576,0.880047
578,0.893278
580,0.905533
582,0.917672
584,0.929034
586,0.940397
588,0.949346
590,0.958201
592,0.965694
594,0.970792
596,0.97589
598,0.980988
600,0.983982
602,0.984532
604,0.985083
606,0.9856329
608,0.986183
610,0.985432
612,0.984111
614,0.982791
616,0.98147
618,0.980149
620,0.981147
622,0.98232
624,0.983494
626,0.984668
628,0.986038
630,0.988423
632,0.990807
634,0.993191
636,0.995575
638,0.996537
640,0.995327
642,0.994116
644,0.9929057
646,0.991695
648,0.9872268
650,0.980837
652,0.974446
654,0.96735
656,0.956609
658,0.945869
660,0.933264
662,0.919886
664,0.904352
666,0.887868
668,0.870531
670,0.851385
672,0.831152
674,0.814455
676,0.79593
678,0.775176
680,0.754965
682,0.737603
684,0.719849
686,0.702341
688,0.686353
690,0.671166
692,0.656603
694,0.642842
696,0.630082
698,0.618013
700,0.606224
702,0.593484
704,0.580588
706,0.567273
708,0.553602
710,0.539594
712,0.524182
714,0.508304
716,0.491026
718,0.473236
720,0.455327
722,0.43856
724,0.420419
726,0.401398
728,0.382971
730,0.36669
732,0.35017
734,0.33347
736,0.31705
738,0.301093
740,0.286912
742,0.273275
744,0.261347
746,0.24969
748,0.238372
750,0.22797
752,0.218501
754,0.209239
756,0.201614
758,0.193989
760,0.186786
762,0.180591
764,0.174395
766,0.1682
768,0.163254
770,0.158567
772,0.15388
774,0.149192
776,0.145119
778,0.141671
780,0.138223
782,0.134775
784,0.131327
786,0.128506
788,0.12592
790,0.123334
792,0.120748
794,0.118162
796,0.116617
798,0.115113
799,0.114361