File: conjugated_ECPs/uv_vis_automated/ACS Macro Lett., 5, 714-717, 2016/metadata/ProDOT-EDOT.txt
Wavelength (nm)	Absorbance
390	0.121252
392	0.123545
394	0.125837
396	0.128452
398	0.131184
400	0.133917
402	0.13665
404	0.139382
406	0.142331
408	0.145288
410	0.148245
412	0.151202
414	0.154243
416	0.157402
418	0.160561
420	0.16372
422	0.167989
424	0.172668
426	0.177347
428	0.182026
430	0.186705
432	0.191383
434	0.196062
436	0.200741
438	0.20542
440	0.210336
442	0.215269
444	0.220202
446	0.225135
448	0.23081
450	0.236527
452	0.242244
454	0.248837
456	0.255812
458	0.262787
460	0.270025
462	0.277398
464	0.284771
466	0.292948
468	0.30127
470	0.309622
472	0.318068
474	0.326515
476	0.336329
478	0.34636
480	0.356452
482	0.366572
484	0.377021
486	0.387761
488	0.398909
490	0.410769
492	0.422772
494	0.434978
496	0.447938
498	0.461253
500	0.475881
502	0.490501
504	0.50482
506	0.520672
508	0.53676
510	0.552189
512	0.566734
514	0.581219
516	0.59606
518	0.610385
520	0.623978
522	0.63757
524	0.651163
526	0.664755
528	0.678614
530	0.693454
532	0.708273
534	0.723067
536	0.738574
538	0.755416
540	0.772632
542	0.789392
544	0.806961
546	0.82373
548	0.839671
550	0.854941
552	0.868011
554	0.880957
556	0.888691
558	0.896405
560	0.904119
562	0.907268
564	0.91024
566	0.913212
568	0.916185
570	0.918852
572	0.92134
574	0.923829
576	0.926317
578	0.929088
580	0.935145
582	0.941201
584	0.947258
586	0.954891
588	0.963521
590	0.972121
592	0.978379
594	0.984637
596	0.990895
598	0.994436
600	0.992443
602	0.990449
604	0.988455
606	0.98106
608	0.970704
610	0.956744
612	0.940527
614	0.923016
616	0.903142
618	0.873303
620	0.853461
622	0.8265061
624	0.801483
626	0.779065
628	0.754593
630	0.733945
632	0.710184
634	0.691993
636	0.676199
638	0.660418
640	0.645485
642	0.632236
644	0.621042
646	0.610292
648	0.599995
650	0.589865
652	0.580076
654	0.569214
656	0.556592
658	0.543114
660	0.528897
662	0.512869
664	0.490935
666	0.471847
668	0.453559
670	0.432082
672	0.405344
674	0.383403
676	0.362638
678	0.343036
680	0.322772
682	0.303153
684	0.286139
686	0.269616
688	0.254222
690	0.239754
692	0.227271
694	0.215538
696	0.204738
698	0.19468
700	0.186543
702	0.178406
704	0.171418
706	0.164974
708	0.15853
710	0.152827
712	0.148111
714	0.143394
716	0.138678
718	0.1341
720	0.130835
722	0.127571
724	0.124306
726	0.1210415
728	0.118066
730	0.115682
732	0.113298
734	0.110913
736	0.108529
738	0.106454
740	0.10462
742	0.102786
744	0.100952
746	0.0991178
748	0.09761916
750	0.096207
752	0.0947948
754	0.0933825
756	0.0919735
758	0.0906713
760	0.0893691
762	0.088067
764	0.0867648
766	0.0855202
768	0.08443813
770	0.0833561
772	0.082274
774	0.0811919
776	0.0801733
778	0.0792196
780	0.078266
782	0.0773123
784	0.0763586
786	0.0755117
788	0.0747047
790	0.0738977
792	0.07309077
794	0.0722838
796	0.0720587
798	0.0718569
799	0.0717561